{
    "Name": "Galeota et al. 1996, BA4",
    "Type": "Rectangular",
    "fpc": 80.0,
    "fyt": 430.0,
    "fsut": 0.0,
    "fyl": 430.0,
    "fsul": 0.0,
    "Width": 250.0,
    "Depth": 250.0,
    "L_Inflection": 1140.0,
    "L_Measured": 1140.0,
    "TestConfiguration": "Double Ended",
    "AxLoad": 1000.0,
    "P_Delta": "Shear provided",
    "dlb": 10.0,
    "dlb_c": 10.0,
    "nlb": 12.0,
    "cc_per": 30.0,
    "nib_per": 2.0,
    "cc_par": 30.0,
    "nib_par": 2.0,
    "SubType": "RI: Rectangular and interlocking ties",
    "nsl": 4.0,
    "dtb_rcs": 8.0,
    "s_rcs": 100.0,
    "FailureType": "Flexure",
    "data": {
        "disp": [
            0.18,
            0.4,
            0.57,
            0.62,
            0.72,
            0.91,
            1.08,
            1.13,
            1.31,
            1.57,
            1.65,
            1.79,
            1.97,
            2.17,
            2.25,
            2.4,
            2.6,
            2.76,
            2.85,
            3.15,
            3.26,
            3.46,
            3.79,
            3.78,
            4.08,
            4.28,
            4.29,
            4.73,
            4.83,
            5.04,
            5.38,
            5.41,
            5.69,
            6.03,
            6.12,
            6.52,
            6.79,
            7.05,
            7.35,
            7.56,
            8.0,
            8.09,
            8.439999,
            8.600001,
            9.04,
            9.140001,
            9.58,
            9.640001,
            9.99,
            10.15,
            10.65,
            10.87,
            11.36,
            11.48,
            12.02,
            12.06,
            12.69,
            12.99,
            13.19,
            13.65,
            13.79,
            14.4,
            14.47,
            14.62,
            15.03,
            15.56,
            15.99,
            16.14,
            16.66,
            17.2,
            18.21,
            18.42,
            18.54,
            18.14,
            17.76,
            17.65,
            17.42,
            17.08,
            16.81,
            16.48,
            16.3,
            15.95,
            15.57,
            15.41,
            15.04,
            14.8,
            14.44,
            14.26,
            14.03,
            13.61,
            13.42,
            13.09,
            12.85,
            12.6,
            12.34,
            12.1,
            11.63,
            11.46,
            11.09,
            10.91,
            10.4,
            10.34,
            9.890001,
            9.7,
            9.359999,
            9.020001,
            8.890001,
            8.32,
            8.020001,
            7.63,
            7.4,
            6.86,
            6.77,
            6.49,
            6.27,
            6.03,
            5.61,
            5.47,
            5.12,
            4.9,
            4.65,
            4.24,
            4.09,
            3.83,
            3.55,
            3.62,
            3.0,
            2.92,
            2.77,
            2.33,
            2.22,
            1.76,
            1.69,
            1.46,
            1.16,
            0.82,
            0.51,
            0.41,
            0.3,
            -0.18,
            -0.22,
            -0.32,
            -0.74,
            -0.76,
            -1.21,
            -1.38,
            -1.52,
            -1.96,
            -2.06,
            -2.43,
            -2.71,
            -3.04,
            -3.25,
            -3.21,
            -3.78,
            -3.79,
            -4.26,
            -4.4,
            -4.76,
            -4.96,
            -5.05,
            -5.47,
            -5.73,
            -6.12,
            -6.08,
            -6.71,
            -6.78,
            -7.4,
            -8.100001,
            -8.16,
            -8.79,
            -9.0,
            -9.43,
            -9.72,
            -10.16,
            -10.41,
            -10.73,
            -11.08,
            -11.56,
            -12.03,
            -12.66,
            -12.93,
            -13.34,
            -14.08,
            -13.92,
            -14.58,
            -15.13,
            -15.26,
            -16.1,
            -16.84,
            -17.05,
            -17.34,
            -18.08,
            -18.77,
            -19.8,
            -20.27,
            -21.02,
            -21.09,
            -20.95,
            -20.54,
            -20.37,
            -19.95,
            -19.73,
            -19.36,
            -19.11,
            -18.75,
            -18.41,
            -18.11,
            -17.7,
            -17.38,
            -16.98,
            -16.76,
            -16.29,
            -16.13,
            -15.75,
            -15.65,
            -15.13,
            -14.99,
            -14.63,
            -14.25,
            -13.92,
            -13.82,
            -13.24,
            -13.2,
            -12.48,
            -12.28,
            -11.95,
            -11.71,
            -11.21,
            -10.89,
            -10.29,
            -10.06,
            -9.479999,
            -9.38,
            -8.859999,
            -8.649999,
            -8.26,
            -8.11,
            -7.76,
            -7.38,
            -6.89,
            -6.6,
            -6.3,
            -5.91,
            -5.52,
            -5.4,
            -4.82,
            -4.81,
            -4.35,
            -4.14,
            -3.99,
            -3.42,
            -3.21,
            -2.89,
            -2.66,
            -2.49,
            -2.08,
            -1.76,
            -1.57,
            -1.32,
            -1.08,
            -0.87,
            -0.58,
            -0.5,
            -0.12,
            0.03,
            0.25,
            0.46,
            0.66,
            1.05,
            1.21,
            1.48,
            1.84,
            2.09,
            2.3,
            2.82,
            3.02,
            3.2,
            3.61,
            3.77,
            3.93,
            4.4,
            4.58,
            4.74,
            5.1,
            5.4,
            5.74,
            5.95,
            6.4,
            6.67,
            6.94,
            7.29,
            7.84,
            7.89,
            8.5,
            8.7,
            9.17,
            9.43,
            9.67,
            10.3,
            10.54,
            10.84,
            11.37,
            11.6,
            12.19,
            12.46,
            12.73,
            13.26,
            13.39,
            13.86,
            14.49,
            14.85,
            15.15,
            15.68,
            16.26,
            16.62,
            17.05,
            17.84,
            18.52,
            19.15,
            19.62,
            19.86,
            20.19,
            20.77,
            21.51,
            22.09,
            22.79,
            23.49,
            24.24,
            24.39,
            24.86,
            25.65,
            25.98,
            26.31,
            26.91,
            27.6,
            27.99,
            28.61,
            29.39,
            30.02,
            30.68,
            30.96,
            31.35,
            32.12,
            32.78,
            33.42,
            33.71,
            34.14,
            34.86,
            35.6,
            35.78,
            36.43,
            37.17,
            37.76,
            38.4,
            38.89,
            39.62,
            40.57,
            40.97,
            40.6,
            40.07,
            39.94,
            39.4,
            39.19,
            38.97,
            38.62,
            38.24,
            38.07,
            37.79,
            37.43,
            37.03,
            36.82,
            36.45,
            36.11,
            35.92,
            35.48,
            35.28,
            34.75,
            34.54,
            34.16,
            33.97,
            33.6,
            33.37,
            32.99,
            32.8,
            32.26,
            32.13,
            31.68,
            31.45,
            30.94,
            30.78,
            30.27,
            30.1,
            29.7,
            29.37,
            29.16,
            28.58,
            28.62,
            28.09,
            28.03,
            27.57,
            27.07,
            27.14,
            26.57,
            26.2,
            25.95,
            25.18,
            24.95,
            24.17,
            23.7,
            23.33,
            22.67,
            22.03,
            21.78,
            21.19,
            20.59,
            20.04,
            19.55,
            19.21,
            18.7,
            18.08,
            17.53,
            17.31,
            16.71,
            16.12,
            15.6,
            15.39,
            14.72,
            14.13,
            13.58,
            13.0,
            12.64,
            11.84,
            10.97,
            10.88,
            10.23,
            9.71,
            9.270001,
            8.96,
            8.34,
            7.6,
            7.33,
            6.61,
            6.28,
            5.85,
            5.39,
            5.07,
            4.37,
            4.09,
            3.37,
            3.24,
            2.71,
            2.39,
            1.98,
            1.61,
            1.27,
            0.53,
            0.37,
            -0.02,
            -0.29,
            -0.72,
            -1.24,
            -1.52,
            -1.9,
            -2.44,
            -2.54,
            -3.04,
            -3.31,
            -3.7,
            -4.13,
            -4.45,
            -4.93,
            -5.17,
            -5.91,
            -6.37,
            -6.54,
            -7.04,
            -7.52,
            -7.82,
            -8.439999,
            -8.99,
            -9.29,
            -10.05,
            -10.57,
            -10.76,
            -11.27,
            -11.93,
            -12.43,
            -13.01,
            -13.8,
            -14.45,
            -14.95,
            -15.69,
            -16.28,
            -16.84,
            -17.49,
            -18.24,
            -18.83,
            -19.54,
            -20.13,
            -20.79,
            -21.22,
            -21.58,
            -22.12,
            -22.87,
            -23.51,
            -24.16,
            -24.94,
            -25.26,
            -25.87,
            -26.71,
            -27.58,
            -28.36,
            -28.7,
            -29.25,
            -30.07,
            -30.69,
            -31.31,
            -31.72,
            -32.13,
            -32.81,
            -33.52,
            -34.08,
            -34.81,
            -35.17,
            -35.53,
            -36.2,
            -36.89,
            -37.71,
            -38.67,
            -39.08,
            -39.58,
            -40.15,
            -40.75,
            -41.37,
            -42.0,
            -42.26,
            -42.86,
            -43.55,
            -44.31,
            -44.88,
            -45.42,
            -45.67,
            -45.63,
            -45.08,
            -44.83,
            -44.25,
            -44.07,
            -43.52,
            -43.19,
            -42.64,
            -42.34,
            -41.88,
            -41.62,
            -41.11,
            -40.82,
            -40.27,
            -40.08,
            -39.77,
            -39.2,
            -38.92,
            -38.65,
            -38.03,
            -37.73,
            -37.26,
            -36.66,
            -36.42,
            -35.85,
            -35.51,
            -35.25,
            -34.67,
            -34.4,
            -34.14,
            -33.6,
            -33.34,
            -32.99,
            -32.38,
            -32.21,
            -31.84,
            -31.09,
            -30.75,
            -30.2,
            -29.88,
            -29.66,
            -29.0,
            -28.46,
            -28.26,
            -27.76,
            -27.25,
            -27.04,
            -26.75,
            -26.25,
            -25.59,
            -25.37,
            -24.74,
            -24.12,
            -23.89,
            -23.29,
            -22.71,
            -22.34,
            -22.09,
            -21.46,
            -20.73,
            -20.28,
            -20.15,
            -19.58,
            -18.93,
            -18.35,
            -17.83,
            -17.63,
            -17.0,
            -16.44,
            -15.81,
            -15.26,
            -14.9,
            -14.6,
            -13.96,
            -13.21,
            -12.52,
            -12.24,
            -11.98,
            -11.37,
            -10.74,
            -10.1,
            -9.8,
            -9.479999,
            -8.8,
            -8.23,
            -7.57,
            -7.19,
            -6.91,
            -6.08,
            -5.32,
            -4.94,
            -4.61,
            -3.84,
            -3.07,
            -2.8,
            -2.12,
            -1.71,
            -1.29,
            -0.6,
            0.25,
            0.4,
            0.94,
            1.68,
            2.16,
            2.47,
            3.31,
            3.54,
            4.12,
            4.85,
            5.69,
            5.96,
            6.33,
            7.14,
            7.71,
            8.59,
            8.8,
            9.71,
            10.44,
            11.01,
            11.4,
            11.7,
            12.68,
            13.49,
            14.35,
            15.2,
            16.02,
            16.88,
            17.63,
            18.5,
            19.04,
            19.45,
            20.08,
            21.04,
            21.83,
            22.38,
            23.19,
            24.08,
            24.97,
            25.76,
            26.66,
            27.19,
            27.91,
            28.86,
            29.4,
            30.29,
            31.14,
            31.95,
            32.46,
            33.39,
            33.81,
            34.64,
            35.51,
            36.33,
            37.35,
            37.73,
            38.28,
            39.04,
            39.98,
            40.86,
            41.76,
            41.8,
            41.34,
            40.99,
            40.66,
            40.17,
            39.73,
            39.27,
            38.91,
            38.51,
            38.17,
            37.73,
            37.4,
            36.91,
            36.56,
            36.15,
            35.78,
            35.41,
            35.07,
            34.74,
            34.18,
            33.88,
            33.56,
            33.13,
            32.71,
            32.41,
            31.99,
            31.89,
            31.3,
            30.89,
            30.77,
            30.27,
            29.84,
            29.43,
            28.9,
            28.49,
            27.96,
            27.46,
            27.0,
            26.48,
            25.47,
            24.88,
            24.32,
            23.73,
            22.98,
            22.46,
            21.92,
            21.41,
            20.81,
            19.81,
            19.3,
            18.71,
            18.18,
            17.09,
            16.51,
            15.98,
            15.47,
            14.92,
            14.35,
            13.72,
            13.24,
            12.73,
            12.12,
            11.59,
            11.03,
            9.95,
            9.439999,
            8.810001,
            7.8,
            7.34,
            6.72,
            6.22,
            5.23,
            4.72,
            4.1,
            3.55,
            2.58,
            2.11,
            1.54,
            0.49,
            0.04,
            -0.45,
            -1.01,
            -1.61,
            -2.01,
            -2.54,
            -3.63,
            -4.2,
            -4.62,
            -5.12,
            -5.75,
            -6.25,
            -6.69,
            -7.28,
            -7.87,
            -8.82,
            -9.359999,
            -9.97,
            -10.45,
            -11.02,
            -11.54,
            -12.08,
            -12.64,
            -13.77,
            -14.28,
            -14.93,
            -15.96,
            -16.52,
            -17.09,
            -17.63,
            -18.27,
            -19.34,
            -19.87,
            -20.52,
            -21.69,
            -22.21,
            -22.77,
            -23.31,
            -23.89,
            -24.5,
            -25.09,
            -25.63,
            -26.3,
            -26.84,
            -27.55,
            -28.11,
            -28.71,
            -29.31,
            -29.91,
            -30.55,
            -31.07,
            -31.67,
            -32.3,
            -32.92,
            -33.55,
            -34.37,
            -35.19,
            -35.84,
            -36.4,
            -37.1,
            -37.7,
            -38.27,
            -38.98,
            -39.6,
            -40.19,
            -40.78,
            -41.57,
            -42.07,
            -42.73,
            -43.36,
            -44.02,
            -44.72,
            -45.24,
            -45.85,
            -46.46,
            -46.66,
            -45.94,
            -45.46,
            -44.95,
            -44.64,
            -44.18,
            -43.7,
            -43.35,
            -42.91,
            -42.46,
            -42.0,
            -41.04,
            -40.61,
            -39.68,
            -39.27,
            -38.77,
            -38.33,
            -37.88,
            -36.98,
            -36.44,
            -35.5,
            -35.07,
            -34.13,
            -33.73,
            -32.75,
            -32.29,
            -31.67,
            -31.28,
            -31.17,
            -30.28,
            -29.78,
            -29.31,
            -28.33,
            -27.81,
            -27.39,
            -26.86,
            -26.35,
            -25.83,
            -25.32,
            -24.46,
            -23.79,
            -23.6,
            -23.11,
            -22.43,
            -21.67,
            -21.36,
            -21.12,
            -20.19,
            -19.63,
            -19.08,
            -18.51,
            -17.55,
            -16.98,
            -16.44,
            -15.86,
            -14.86,
            -14.35,
            -13.83,
            -13.28,
            -12.74,
            -12.01,
            -11.36,
            -10.32,
            -9.810001,
            -9.22,
            -8.689999,
            -7.67,
            -7.08,
            -6.1,
            -5.56,
            -4.49,
            -4.06,
            -3.53,
            -2.58,
            -2.05,
            -1.53,
            -0.97,
            0.02,
            1.05,
            1.52,
            2.06,
            2.6,
            3.56,
            4.08,
            4.62,
            5.09,
            5.63,
            6.16,
            6.73,
            7.7,
            8.26,
            8.770001,
            9.32,
            9.859999,
            10.42,
            10.94,
            11.49,
            12.01,
            12.56,
            13.12,
            13.68,
            14.2,
            14.75,
            15.35,
            15.89,
            16.98,
            17.56,
            18.0,
            18.62,
            19.16,
            19.74,
            20.29,
            20.89,
            21.43,
            22.01,
            22.58,
            23.12,
            23.63,
            24.17,
            24.79,
            25.35,
            25.94,
            26.53,
            27.69,
            28.22,
            28.84,
            29.34,
            29.93,
            30.49,
            31.12,
            31.66,
            32.28,
            32.79,
            33.41,
            33.96,
            34.57,
            35.24,
            35.67,
            36.33,
            36.93,
            38.08,
            38.63,
            39.24,
            39.86,
            40.4,
            40.97,
            41.65,
            42.22,
            42.12,
            41.63,
            41.22,
            40.91,
            40.47,
            40.03,
            39.63,
