{
    "Name": "Galeota et al. 1996, AB4",
    "Type": "Rectangular",
    "fpc": 80.0,
    "fyt": 430.0,
    "fsut": 0.0,
    "fyl": 430.0,
    "fsul": 0.0,
    "Width": 250.0,
    "Depth": 250.0,
    "L_Inflection": 1140.0,
    "L_Measured": 1140.0,
    "TestConfiguration": "Double Ended",
    "AxLoad": 1000.0,
    "P_Delta": "Shear provided",
    "dlb": 20.0,
    "dlb_c": 20.0,
    "nlb": 12.0,
    "cc_per": 30.0,
    "nib_per": 2.0,
    "cc_par": 30.0,
    "nib_par": 2.0,
    "SubType": "RI: Rectangular and interlocking ties",
    "nsl": 4.0,
    "dtb_rcs": 8.0,
    "s_rcs": 150.0,
    "FailureType": "Flexure",
    "data": {
        "disp": [
            0.03,
            0.08,
            0.12,
            0.18,
            0.23,
            0.28,
            0.33,
            0.38,
            0.44,
            0.48,
            0.53,
            0.57,
            0.63,
            0.68,
            0.73,
            0.78,
            0.82,
            0.88,
            0.93,
            0.99,
            1.05,
            1.1,
            1.15,
            1.2,
            1.26,
            1.31,
            1.38,
            1.42,
            1.48,
            1.54,
            1.59,
            1.66,
            1.71,
            1.77,
            1.82,
            1.87,
            1.93,
            2.0,
            2.06,
            2.12,
            2.18,
            2.25,
            2.32,
            2.38,
            2.45,
            2.52,
            2.58,
            2.64,
            2.71,
            2.79,
            2.85,
            2.92,
            2.98,
            3.05,
            3.11,
            3.19,
            3.26,
            3.33,
            3.4,
            3.53,
            3.59,
            3.65,
            3.75,
            3.83,
            3.92,
            4.01,
            4.1,
            4.19,
            4.25,
            4.34,
            4.43,
            4.52,
            4.6,
            4.69,
            4.78,
            4.89,
            5.0,
            5.11,
            5.22,
            5.33,
            5.44,
            5.55,
            5.64,
            5.74,
            5.87,
            5.98,
            6.19,
            6.27,
            6.38,
            6.49,
            6.63,
            6.76,
            6.9,
            7.03,
            7.17,
            7.3,
            7.44,
            7.58,
            7.74,
            7.89,
            8.02,
            8.23,
            8.33,
            8.47,
            8.61,
            8.78,
            8.93,
            9.1,
            9.27,
            9.45,
            9.63,
            9.84,
            10.05,
            10.23,
            10.4,
            10.57,
            10.74,
            10.91,
            11.08,
            11.25,
            11.42,
            11.58,
            11.78,
            12.02,
            12.22,
            12.42,
            12.62,
            12.8,
            12.96,
            13.05,
            13.08,
            13.25,
            13.46,
            13.63,
            13.85,
            14.0,
            14.19,
            14.37,
            14.57,
            14.72,
            14.91,
            15.1,
            15.28,
            15.52,
            15.65,
            15.81,
            15.98,
            16.19,
            16.36,
            16.58,
            16.8,
            17.03,
            17.25,
            17.43,
            17.65,
            17.87,
            18.08,
            18.26,
            18.49,
            18.72,
            18.9,
            19.22,
            19.74,
            20.07,
            20.37,
            20.93,
            21.33,
            21.73,
            21.86,
            21.91,
            21.95,
            21.99,
            21.95,
            21.83,
            21.71,
            21.59,
            21.46,
            21.34,
            21.21,
            21.09,
            20.97,
            20.84,
            20.72,
            20.59,
            20.47,
            20.34,
            20.22,
            20.09,
            19.96,
            19.83,
            19.71,
            19.58,
            19.45,
            19.32,
            19.2,
            19.07,
            18.94,
            18.81,
            18.68,
            18.56,
            18.43,
            18.3,
            18.17,
            18.05,
            17.92,
            17.79,
            17.65,
            17.49,
            17.36,
            17.23,
            17.1,
            16.97,
            16.84,
            16.71,
            16.58,
            16.45,
            16.32,
            16.2,
            16.06,
            15.93,
            15.81,
            15.67,
            15.55,
            15.42,
            15.28,
            15.16,
            15.03,
            14.9,
            14.76,
            14.64,
            14.51,
            14.38,
            14.25,
            14.12,
            13.99,
            13.86,
            13.73,
            13.6,
            13.47,
            13.33,
            13.21,
            13.07,
            12.92,
            12.78,
            12.64,
            12.51,
            12.37,
            12.23,
            12.09,
            11.95,
            11.81,
            11.67,
            11.53,
            11.38,
            11.25,
            11.11,
            10.97,
            10.84,
            10.7,
            10.55,
            10.42,
            10.28,
            10.14,
            10.0,
            9.87,
            9.73,
            9.6,
            9.45,
            9.32,
            9.18,
            9.05,
            8.87,
            8.73,
            8.6,
            8.47,
            8.34,
            8.2,
            8.08,
            7.95,
            7.82,
            7.69,
            7.51,
            7.27,
            7.14,
            7.01,
            6.9,
            6.78,
            6.65,
            6.54,
            6.41,
            6.29,
            6.18,
            6.05,
            5.93,
            5.8,
            5.71,
            5.59,
            5.45,
            5.34,
            5.25,
            5.14,
            5.04,
            4.92,
            4.82,
            4.73,
            4.63,
            4.51,
            4.44,
            4.43,
            4.34,
            4.23,
            4.14,
            4.06,
            3.97,
            3.74,
            3.66,
            3.55,
            3.44,
            3.36,
            3.28,
            3.15,
            3.0,
            2.86,
            2.76,
            2.67,
            2.58,
            2.49,
            2.36,
            2.24,
            2.13,
            2.03,
            1.92,
            1.82,
            1.72,
            1.62,
            1.51,
            1.41,
            1.31,
            1.21,
            1.1,
            1.0,
            0.9,
            0.8,
            0.7,
            0.6,
            0.5,
            0.4,
            0.31,
            0.21,
            0.12,
            0.01,
            -0.08,
            -0.18,
            -0.28,
            -0.38,
            -0.47,
            -0.56,
            -0.66,
            -0.75,
            -0.85,
            -0.94,
            -1.03,
            -1.13,
            -1.25,
            -1.35,
            -1.44,
            -1.53,
            -1.63,
            -1.73,
            -1.82,
            -1.92,
            -2.01,
            -2.08,
            -2.2,
            -2.31,
            -2.39,
            -2.52,
            -2.65,
            -2.78,
            -2.88,
            -3.0,
            -3.12,
            -3.25,
            -3.38,
            -3.49,
            -3.61,
            -3.74,
            -3.86,
            -3.98,
            -4.11,
            -4.24,
            -4.35,
            -4.5,
            -4.63,
            -4.75,
            -4.87,
            -5.02,
            -5.16,
            -5.31,
            -5.45,
            -5.59,
            -5.72,
            -5.86,
            -6.0,
            -6.14,
            -6.3,
            -6.43,
            -6.57,
            -6.71,
            -7.03,
            -7.14,
            -7.24,
            -7.54,
            -7.68,
            -7.82,
            -7.97,
            -8.11,
            -8.25,
            -8.39,
            -8.56,
            -8.72,
            -8.88,
            -9.06,
            -9.21,
            -9.39,
            -9.56,
            -9.75,
            -9.93,
            -10.11,
            -10.3,
            -10.5,
            -10.72,
            -10.94,
            -11.15,
            -11.34,
            -11.53,
            -11.71,
            -11.89,
            -12.08,
            -12.33,
            -12.71,
            -12.88,
            -13.05,
            -13.22,
            -13.44,
            -13.6,
            -13.83,
            -14.05,
            -14.3,
            -14.5,
            -14.72,
            -14.91,
            -15.12,
            -15.33,
            -15.53,
            -15.74,
            -15.94,
            -16.18,
            -16.39,
            -16.59,
            -16.83,
            -17.04,
            -17.26,
            -17.51,
            -17.74,
            -17.98,
            -18.18,
            -18.4,
            -18.63,
            -18.84,
            -19.06,
            -19.29,
            -19.69,
            -19.97,
            -20.49,
            -20.73,
            -21.06,
            -21.39,
            -21.89,
            -22.62,
            -22.69,
            -22.62,
            -22.5,
            -22.38,
            -22.25,
            -22.15,
            -22.03,
            -21.92,
            -21.8,
            -21.68,
            -21.56,
            -21.43,
            -21.31,
            -21.2,
            -21.07,
            -20.94,
            -20.8,
            -20.67,
            -20.54,
            -20.38,
            -20.27,
            -20.12,
            -19.99,
            -19.86,
            -19.72,
            -19.58,
            -19.44,
            -19.31,
            -19.14,
            -18.97,
            -18.8,
            -18.69,
            -18.51,
            -18.4,
            -18.29,
            -18.17,
            -18.0,
            -17.83,
            -17.72,
            -17.54,
            -17.43,
            -17.26,
            -17.07,
            -16.9,
            -16.74,
            -16.62,
            -16.45,
            -16.28,
            -16.17,
            -15.99,
            -15.81,
            -15.64,
            -15.47,
            -15.35,
            -15.22,
            -15.1,
            -14.97,
            -14.84,
            -14.72,
            -14.6,
            -14.46,
            -14.28,
            -14.16,
            -13.97,
            -13.77,
            -13.64,
            -13.52,
            -13.33,
            -13.2,
            -13.07,
            -12.95,
            -12.76,
            -12.63,
            -12.49,
            -12.34,
            -12.2,
            -12.05,
            -11.9,
            -11.74,
            -11.58,
            -11.42,
            -11.26,
            -11.11,
            -10.94,
            -10.79,
            -10.64,
            -10.48,
            -10.32,
            -10.16,
            -9.99,
            -9.83,
            -9.68,
            -9.52,
            -9.37,
            -9.2,
            -9.04,
            -8.85,
            -8.67,
            -8.48,
            -8.28,
            -8.09,
            -7.9,
            -7.71,
            -7.51,
            -7.33,
            -7.14,
            -6.95,
            -6.75,
            -6.56,
            -6.37,
            -6.17,
            -5.98,
            -5.79,
            -5.61,
            -5.42,
            -5.23,
            -5.05,
            -4.86,
            -4.67,
            -4.48,
            -4.3,
            -4.11,
            -3.93,
            -3.74,
            -3.56,
            -3.37,
            -3.19,
            -2.99,
            -2.89,
            -2.69,
            -2.54,
            -2.34,
            -2.16,
            -2.07,
            -1.97,
            -1.87,
            -1.78,
            -1.6,
            -1.43,
            -1.29,
            -1.15,
            -1.05,
            -0.92,
            -0.84,
            -0.68,
            -0.53,
            -0.37,
            -0.2,
            0.0,
            0.11,
            0.22,
            0.32,
            0.52,
            0.71,
            0.81,
            1.02,
            1.13,
            1.25,
            1.37,
            1.49,
            1.62,
            1.75,
            1.89,
            2.02,
            2.16,
            2.3,
            2.44,
            2.58,
            2.73,
            2.87,
            3.04,
            3.19,
            3.33,
            3.49,
            3.64,
            3.78,
            3.91,
            4.06,
            4.21,
            4.36,
            4.51,
            4.66,
            4.82,
            4.97,
            5.12,
            5.28,
            5.44,
            5.6,
            5.75,
            5.91,
            6.07,
            6.23,
            6.39,
            6.54,
            6.7,
            6.87,
            7.02,
            7.19,
            7.35,
            7.51,
            7.67,
            7.83,
            7.99,
            8.16,
            8.32,
            8.48,
            8.64,
            8.96,
            9.12,
            9.29,
            9.45,
            9.78,
            9.94,
            10.1,
            10.26,
            10.44,
            10.6,
            10.76,
            10.93,
            11.09,
            11.26,
            11.42,
            11.59,
            11.75,
            11.91,
            12.08,
            12.25,
            12.41,
            12.58,
            12.74,
            12.91,
            13.07,
            13.24,
            13.57,
            13.9,
            14.07,
            14.23,
            14.4,
            14.57,
            14.9,
            15.23,
            15.4,
            15.73,
            16.07,
            16.23,
            16.56,
            16.73,
            17.07,
            17.23,
            17.57,
            17.91,
            18.08,
            18.41,
            18.58,
            18.92,
            19.26,
            19.43,
            19.78,
            20.12,
            20.47,
            20.81,
            21.17,
            21.52,
            21.85,
            22.17,
            22.75,
            23.14,
            23.66,
            24.1,
            24.67,
            25.27,
            25.9,
            26.57,
            27.18,
            27.79,
            28.42,
            29.06,
            29.55,
            30.03,
            30.53,
            31.16,
            31.65,
            32.15,
            32.5,
            32.85,
            33.2,
            33.69,
            34.18,
            34.81,
            35.59,
            36.37,
            37.01,
            37.81,
            38.44,
            39.08,
            39.7,
            40.5,
            41.28,
            42.05,
            42.85,
            43.62,
            44.39,
            45.17,
            45.38,
            45.66,
            46.17,
            46.21,
            46.26,
            46.3,
            46.29,
            46.21,
            46.07,
            45.95,
            45.83,
            45.69,
            45.56,
            45.43,
            45.28,
            45.12,
            44.96,
            44.81,
            44.65,
            44.5,
            44.34,
            44.18,
            44.03,
            43.87,
            43.73,
            43.57,
            43.42,
            43.26,
            43.11,
            42.95,
            42.8,
            42.64,
            42.49,
            42.32,
            42.17,
            42.03,
            41.86,
            41.71,
            41.55,
            41.4,
            41.25,
            41.1,
            40.94,
            40.78,
            40.62,
            40.47,
            40.32,
            40.16,
            40.01,
            39.85,
            39.68,
            39.53,
            39.37,
            39.21,
            39.05,
            38.87,
            38.71,
            38.56,
            38.39,
            38.22,
            38.08,
            37.91,
            37.76,
            37.59,
            37.43,
            37.27,
            37.1,
            36.95,
            36.79,
            36.63,
            36.48,
            36.31,
            36.16,
            36.0,
            35.84,
            35.69,
            35.53,
            35.37,
            35.22,
            35.05,
            34.9,
            34.74,
            34.59,
            34.43,
            34.14,
            33.84,
            33.55,
            33.26,
            32.98,
            32.69,
            32.42,
            32.15,
            31.93,
            31.75,
            31.54,
            31.29,
            31.04,
            30.79,
            30.58,
            30.42,
            30.03,
            29.84,
            29.67,
            29.49,
            29.26,
            29.08,
            28.86,
            28.71,
            28.43,
            28.25,
            28.08,
            27.85,
            27.66,
            27.45,
            27.23,
            27.0,
            26.76,
            26.51,
            26.27,
            26.01,
            25.75,
            25.49,
            25.21,
            24.93,
            24.66,
            24.39,
            24.11,
            23.84,
            23.55,
            23.27,
            22.99,
            22.7,
            22.42,
            22.14,
            21.65,
            21.37,
            21.09,
            20.81,
            20.53,
            20.25,
            19.97,
            19.68,
            19.38,
            19.08,
            18.79,
            18.49,
            18.18,
            17.88,
            17.57,
            17.25,
            16.94,
            16.62,
            16.3,
            15.98,
            15.66,
            15.34,
            15.0,
            14.67,
            14.33,
            14.0,
            13.66,
            13.32,
            12.98,
            12.63,
            12.29,
            11.77,
            11.24,
            10.89,
            10.37,
            9.85,
            9.49,
            8.95,
            8.41,
            8.02,
            7.47,
            6.98,
            6.46,
            5.94,
            5.6,
            5.08,
            4.57,
            4.22,
            3.88,
            3.52,
            3.18,
            2.67,
            2.33,
            1.98,
            1.65,
            1.31,
            0.99,
            0.64,
            0.31,
            -0.02,
            -0.35,
            -0.68,
            -1.01,
            -1.34,
            -1.67,
            -1.99,
            -2.32,
            -2.65,
            -2.96,
            -3.29,
            -3.61,
            -3.93,
            -4.24,
            -4.55,
            -4.86,
            -5.18,
            -5.49,
            -5.81,
            -6.12,
            -6.43,
            -6.75,
            -7.06,
            -7.38,
            -7.69,
            -8.01,
            -8.32,
            -8.63,
            -8.94,
            -9.28,
            -9.6,
            -9.91,
            -10.24,
            -10.56,
            -10.88,
            -11.37,
            -11.86,
            -12.2,
            -12.71,
            -13.05,
            -13.58,
            -14.12,
            -14.47,
            -14.99,
            -15.53,
            -16.05,
            -16.77,
            -17.49,
            -18.24,
            -19.0,
            -19.78,
            -20.61,
            -21.46,
            -22.31,
