{
    "Name": "Galeota et al. 1996, AA4",
    "Type": "Rectangular",
    "fpc": 80.0,
    "fyt": 430.0,
    "fsut": 0.0,
    "fyl": 430.0,
    "fsul": 0.0,
    "Width": 250.0,
    "Depth": 250.0,
    "L_Inflection": 1140.0,
    "L_Measured": 1140.0,
    "TestConfiguration": "Double Ended",
    "AxLoad": 1000.0,
    "P_Delta": "Shear provided",
    "dlb": 10.0,
    "dlb_c": 10.0,
    "nlb": 12.0,
    "cc_per": 30.0,
    "nib_per": 2.0,
    "cc_par": 30.0,
    "nib_par": 2.0,
    "SubType": "RI: Rectangular and interlocking ties",
    "nsl": 4.0,
    "dtb_rcs": 8.0,
    "s_rcs": 150.0,
    "FailureType": "Flexure",
    "data": {
        "disp": [
            -0.05,
            0.0,
            0.07,
            0.12,
            0.18,
            0.26,
            0.27,
            0.34,
            0.37,
            0.43,
            0.49,
            0.53,
            0.62,
            0.63,
            0.69,
            0.77,
            0.83,
            0.86,
            0.94,
            1.02,
            1.09,
            1.08,
            1.15,
            1.14,
            1.26,
            1.3,
            1.36,
            1.42,
            1.48,
            1.55,
            1.63,
            1.66,
            1.74,
            1.82,
            1.89,
            1.92,
            1.99,
            2.02,
            2.11,
            2.17,
            2.23,
            2.28,
            2.35,
            2.41,
            2.46,
            2.53,
            2.61,
            2.66,
            2.73,
            2.83,
            2.89,
            2.93,
            3.09,
            3.1,
            3.15,
            3.25,
            3.35,
            3.46,
            3.55,
            3.58,
            3.71,
            3.79,
            3.92,
            4.02,
            4.16,
            4.25,
            4.34,
            4.49,
            4.64,
            4.71,
            4.8,
            4.93,
            5.04,
            5.17,
            5.28,
            5.39,
            5.49,
            5.67,
            5.8,
            5.96,
            6.11,
            6.21,
            6.37,
            6.5,
            6.61,
            6.83,
            6.97,
            7.13,
            7.47,
            7.62,
            7.82,
            8.0,
            8.21,
            8.43,
            8.71,
            8.93,
            9.35,
            9.57,
            9.85,
            10.14,
            10.41,
            10.65,
            10.95,
            11.4,
            11.6,
            11.84,
            12.17,
            12.39,
            12.73,
            13.11,
            13.49,
            13.87,
            14.42,
            14.58,
            14.63,
            14.69,
            14.87,
            15.56,
            15.74,
            15.8,
            15.86,
            15.92,
            15.98,
            16.04,
            16.09,
            15.93,
            15.8,
            15.64,
            15.49,
            15.36,
            15.19,
            15.04,
            14.9,
            14.76,
            14.61,
            14.46,
            14.29,
            14.19,
            14.01,
            13.85,
            13.73,
            13.56,
            13.4,
            13.28,
            13.11,
            12.92,
            12.8,
            12.59,
            12.42,
            12.16,
            12.04,
            11.84,
            11.71,
            11.52,
            11.32,
            11.12,
            10.94,
            10.72,
            10.54,
            10.38,
            10.15,
            9.96,
            9.77,
            9.57,
            9.45,
            9.32,
            9.13,
            8.97,
            8.77,
            8.59,
            8.42,
            8.24,
            8.09,
            7.93,
            7.78,
            7.6,
            7.44,
            7.3,
            7.14,
            6.98,
            6.81,
            6.63,
            6.49,
            6.33,
            6.19,
            5.98,
            5.81,
            5.67,
            5.54,
            5.38,
            5.25,
            5.07,
            4.93,
            4.77,
            4.55,
            4.44,
            4.33,
            4.17,
            4.02,
            3.89,
            3.71,
            3.58,
            3.45,
            3.32,
            3.21,
            3.06,
            2.94,
            2.83,
            2.7,
            2.6,
            2.51,
            2.39,
            2.22,
            2.12,
            1.98,
            1.9,
            1.76,
            1.67,
            1.56,
            1.47,
            1.31,
            1.26,
            1.11,
            1.03,
            0.88,
            0.73,
            0.6,
            0.53,
            0.45,
            0.32,
            0.26,
            0.14,
            0.05,
            -0.03,
            -0.14,
            -0.2,
            -0.29,
            -0.38,
            -0.48,
            -0.59,
            -0.67,
            -0.76,
            -0.84,
            -0.94,
            -1.05,
            -1.15,
            -1.25,
            -1.36,
            -1.52,
            -1.59,
            -1.72,
            -1.93,
            -2.04,
            -2.21,
            -2.38,
            -2.48,
            -2.64,
            -2.77,
            -2.92,
            -3.05,
            -3.19,
            -3.31,
            -3.46,
            -3.63,
            -3.76,
            -3.9,
            -4.05,
            -4.22,
            -4.36,
            -4.51,
            -4.64,
            -4.81,
            -4.97,
            -5.1,
            -5.27,
            -5.5,
            -5.7,
            -5.89,
            -6.13,
            -6.33,
            -6.56,
            -6.77,
            -7.02,
            -7.24,
            -7.45,
            -7.68,
            -8.04,
            -8.33,
            -8.61,
            -8.82,
            -9.12,
            -9.48,
            -9.79,
            -10.12,
            -10.45,
            -10.7,
            -11.1,
            -11.41,
            -11.95,
            -12.38,
            -12.76,
            -13.18,
            -13.58,
            -14.03,
            -14.57,
            -15.17,
            -15.7,
            -16.21,
            -16.36,
            -16.5,
            -16.62,
            -16.67,
            -16.66,
            -16.55,
            -16.91,
            -17.0,
            -17.04,
            -17.05,
            -16.94,
            -16.82,
            -16.67,
            -16.5,
            -16.33,
            -16.14,
            -15.95,
            -15.77,
            -15.58,
            -15.44,
            -15.26,
            -15.07,
            -14.88,
            -14.7,
            -14.49,
            -14.33,
            -14.13,
            -13.96,
            -13.76,
            -13.55,
            -13.44,
            -13.22,
            -13.04,
            -12.86,
            -12.69,
            -12.5,
            -12.32,
            -12.12,
            -11.97,
            -11.75,
            -11.57,
            -11.39,
            -11.18,
            -10.98,
            -10.84,
            -10.68,
            -10.45,
            -10.27,
            -10.1,
            -9.89,
            -9.75,
            -9.55,
            -9.33,
            -9.17,
            -8.98,
            -8.82,
            -8.6,
            -8.38,
            -8.22,
            -8.02,
            -7.85,
            -7.66,
            -7.46,
            -7.25,
            -7.05,
            -6.9,
            -6.77,
            -6.61,
            -6.45,
            -6.34,
            -6.2,
            -6.09,
            -5.96,
            -5.76,
            -5.6,
            -5.49,
            -5.37,
            -5.23,
            -5.09,
            -4.91,
            -4.8,
            -4.7,
            -4.54,
            -4.4,
            -4.23,
            -4.1,
            -3.97,
            -3.82,
            -3.69,
            -3.55,
            -3.43,
            -3.29,
            -3.15,
            -3.0,
            -2.87,
            -2.73,
            -2.66,
            -2.51,
            -2.42,
            -2.25,
            -2.15,
            -2.0,
            -1.92,
            -1.84,
            -1.72,
            -1.59,
            -1.48,
            -1.37,
            -1.25,
            -1.11,
            -0.96,
            -0.86,
            -0.8,
            -0.66,
            -0.57,
            -0.47,
            -0.34,
            -0.22,
            -0.1,
            0.0,
            0.1,
            0.24,
            0.38,
            0.47,
            0.6,
            0.72,
            0.84,
            0.97,
            1.11,
            1.3,
            1.37,
            1.55,
            1.69,
            1.85,
            1.99,
            2.17,
            2.32,
            2.47,
            2.67,
            2.82,
            3.01,
            3.18,
            3.37,
            3.61,
            3.76,
            3.98,
            4.16,
            4.36,
            4.59,
            4.76,
            4.96,
            5.2,
            5.46,
            5.74,
            6.01,
            6.32,
            6.6,
            6.92,
            7.21,
            7.5,
            7.79,
            8.08,
            8.38,
            8.74,
            9.14,
            9.48,
            9.87,
            10.3,
            10.73,
            11.17,
            11.61,
            11.68,
            12.19,
            12.7,
            13.24,
            13.82,
            14.42,
            15.04,
            15.57,
            16.09,
            16.63,
            17.18,
            17.73,
            18.34,
            18.82,
            19.39,
            19.82,
            20.21,
            20.64,
            21.03,
            21.32,
            21.85,
            22.18,
            22.57,
            22.98,
            23.4,
            23.81,
            24.22,
            24.67,
            25.15,
            25.53,
            26.04,
            26.6,
            27.02,
            27.59,
            28.06,
            28.58,
            29.12,
            29.71,
            30.3,
            30.81,
            31.37,
            31.79,
            31.88,
            31.94,
            32.28,
            32.2,
            32.03,
            31.9,
            31.66,
            31.54,
            31.37,
            31.16,
            31.01,
            30.81,
            30.6,
            30.5,
            30.29,
            30.07,
            29.85,
            29.68,
            29.52,
            29.28,
            29.1,
            28.93,
            28.73,
            28.57,
            28.38,
            28.18,
            27.98,
            27.8,
            27.58,
            27.44,
            27.2,
            26.98,
            26.81,
            26.62,
            26.37,
            26.15,
            26.0,
            25.78,
            25.57,
            25.38,
            25.13,
            24.93,
            24.75,
            24.52,
            24.32,
            24.05,
            23.8,
            23.53,
            23.21,
            23.06,
            22.77,
            22.47,
            22.19,
            21.79,
            21.49,
            21.07,
            20.63,
            20.18,
            19.65,
            19.13,
            18.61,
            18.05,
            17.42,
            16.86,
            16.35,
            15.79,
            15.25,
            14.68,
            14.12,
            13.54,
            13.01,
            12.42,
            11.83,
            11.27,
            10.71,
            10.18,
            9.66,
            9.11,
            8.61,
            8.12,
            7.7,
            7.24,
            6.87,
            6.49,
            6.14,
            5.76,
            5.43,
            5.12,
            4.86,
            4.58,
            4.27,
            4.0,
            3.77,
            3.48,
            3.2,
            2.95,
            2.64,
            2.38,
            2.1,
            1.84,
            1.57,
            1.31,
            1.01,
            0.75,
            0.48,
            0.21,
            -0.07,
            -0.32,
            -0.59,
            -0.82,
            -1.15,
            -1.41,
            -1.69,
            -1.97,
            -2.25,
            -2.57,
            -2.82,
            -3.1,
            -3.37,
            -3.67,
            -3.92,
            -4.32,
            -4.61,
            -5.04,
            -5.42,
            -5.83,
            -6.27,
            -6.65,
            -7.09,
            -7.58,
            -8.12,
            -8.72,
            -9.26,
            -9.83,
            -10.37,
            -10.91,
            -11.41,
            -11.97,
            -12.55,
            -13.16,
            -13.79,
            -14.2,
            -14.56,
            -14.97,
            -15.36,
            -15.76,
            -16.24,
            -16.64,
            -16.98,
            -17.26,
            -17.58,
            -18.09,
            -18.63,
            -19.23,
            -19.81,
            -20.37,
            -20.89,
            -21.44,
            -22.01,
            -22.55,
            -23.18,
            -23.73,
            -24.35,
            -24.91,
            -25.47,
            -26.06,
            -26.63,
            -27.2,
            -27.78,
            -28.33,
            -28.87,
            -29.41,
            -30.02,
            -30.52,
            -31.1,
            -31.61,
            -32.18,
            -32.79,
            -33.37,
            -33.9,
            -34.42,
            -35.03,
            -35.54,
            -36.05,
            -36.14,
            -36.12,
            -35.86,
            -35.7,
            -35.4,
            -35.2,
            -34.98,
            -34.74,
            -34.43,
            -34.08,
            -33.92,
            -33.53,
            -33.17,
            -32.91,
            -32.48,
            -32.26,
            -31.97,
            -31.79,
            -31.54,
            -31.26,
            -30.99,
            -30.7,
            -30.51,
            -30.29,
            -30.05,
            -29.82,
            -29.49,
            -29.37,
            -29.04,
            -28.72,
            -28.64,
            -28.26,
            -27.99,
            -27.71,
            -27.62,
            -27.27,
            -27.02,
            -26.74,
            -26.39,
            -26.13,
            -25.87,
            -25.61,
            -25.17,
            -24.79,
            -24.29,
            -23.77,
            -23.26,
            -22.71,
            -22.21,
            -21.64,
            -21.12,
            -20.61,
            -20.06,
            -19.47,
            -18.89,
            -18.35,
            -17.78,
            -17.26,
            -16.64,
            -16.08,
            -15.54,
            -14.99,
            -14.46,
            -13.95,
            -13.42,
            -12.86,
            -12.27,
            -11.64,
            -11.12,
            -10.51,
            -9.97,
            -9.38,
            -8.8,
            -8.2,
            -7.52,
            -7.02,
            -6.42,
            -5.88,
            -5.34,
            -4.81,
            -4.16,
            -3.59,
            -3.06,
            -2.46,
            -1.96,
            -1.39,
            -0.79,
            -0.21,
            0.4,
            0.96,
            1.62,
            2.2,
            2.7,
            3.24,
            3.76,
            4.38,
            4.91,
            5.53,
            6.03,
            6.58,
            7.08,
            7.59,
            8.14,
            8.66,
            9.29,
            9.84,
            10.34,
            11.01,
            11.51,
            12.06,
            12.63,
            13.27,
            13.84,
            14.38,
            14.9,
            15.46,
            16.04,
            16.6,
            17.14,
            17.72,
            18.26,
            18.85,
            19.38,
            19.99,
            20.55,
            21.1,
            21.72,
            22.25,
            22.83,
            23.4,
            23.97,
            24.57,
            25.14,
            25.73,
            26.34,
            26.92,
            27.54,
            28.11,
            28.67,
            29.24,
            29.84,
            30.45,
            31.03,
            31.62,
            32.13,
            32.66,
            32.57,
            32.34,
            32.17,
            31.93,
            31.72,
            31.48,
            31.26,
            31.03,
            30.87,
            30.6,
            30.41,
            30.17,
            30.0,
            29.64,
            29.47,
            29.23,
            29.0,
            28.79,
            28.51,
            28.17,
            27.9,
            27.52,
            27.27,
            27.01,
            26.71,
            26.44,
            26.12,
            25.81,
            25.48,
            25.11,
            24.78,
            24.46,
            24.0,
            23.5,
            22.96,
            22.42,
            21.83,
            21.21,
            20.64,
            20.0,
            19.4,
            18.75,
            18.14,
            17.51,
            16.87,
            16.24,
            15.72,
            15.22,
            14.67,
            14.09,
            13.56,
            12.98,
            12.42,
            11.87,
            11.29,
            10.71,
            10.12,
            9.57,
            9.01,
            8.44,
            7.88,
            7.33,
            6.75,
            6.18,
            5.64,
            5.08,
            4.54,
            3.99,
            3.43,
            2.87,
            2.3,
            1.79,
            1.22,
            0.68,
            0.07,
            -0.53,
            -1.16,
            -1.77,
            -2.41,
            -3.0,
            -3.62,
            -4.24,
            -4.87,
            -5.52,
            -6.09,
            -6.68,
            -7.31,
            -8.0,
            -8.63,
            -9.26,
            -9.86,
            -10.53,
            -11.14,
            -11.8,
            -12.41,
            -13.06,
            -13.77,
            -14.4,
            -15.04,
            -15.72,
            -16.39,
            -16.99,
            -17.67,
            -18.28,
            -18.96,
            -19.66,
            -20.34,
            -21.06,
            -21.58,
            -22.23,
            -22.76,
            -23.29,
            -23.96,
            -24.47,
            -24.97,
            -25.63,
            -26.13,
            -26.65,
            -27.19,
            -27.88,
            -28.63,
            -29.14,
            -29.91,
            -30.63,
            -31.37,
            -31.88,
            -32.38,
            -33.02,
            -33.6,
            -34.32,
            -35.02,
            -35.52,
            -35.98,
            -36.36,
            -36.2,
            -35.96,
            -35.65,
            -35.45,
            -35.15,
            -34.81,
            -34.5,
            -34.24,
            -33.98,
            -33.74,
            -33.52,
            -33.3,
            -32.94,
            -32.79,
            -32.48,
            -32.23,
            -32.0,
            -31.7,
            -31.46,
            -31.14,
            -30.9,
            -30.56,
            -30.24,
            -29.94,
            -29.66,
            -29.34,
            -28.94,
            -28.58,
            -28.17,
            -27.73,
            -27.35,
            -26.96,
            -26.49,
            -25.88,
            -25.34,
            -24.83,
            -24.27,
            -23.66,
            -23.15,
