{
    "Name": "Galeota et al. 1996, BB",
    "Type": "Rectangular",
    "fpc": 80.0,
    "fyt": 430.0,
    "fsut": 0.0,
    "fyl": 430.0,
    "fsul": 0.0,
    "Width": 250.0,
    "Depth": 250.0,
    "L_Inflection": 1140.0,
    "L_Measured": 1140.0,
    "TestConfiguration": "Double Ended",
    "AxLoad": 1000.0,
    "P_Delta": "Shear provided",
    "dlb": 20.0,
    "dlb_c": 20.0,
    "nlb": 12.0,
    "cc_per": 30.0,
    "nib_per": 2.0,
    "cc_par": 30.0,
    "nib_par": 2.0,
    "SubType": "RI: Rectangular and interlocking ties",
    "nsl": 4.0,
    "dtb_rcs": 8.0,
    "s_rcs": 100.0,
    "FailureType": "Flexure",
    "data": {
        "disp": [
            0.2,
            0.4,
            0.52,
            0.62,
            0.86,
            1.07,
            1.11,
            1.23,
            1.35,
            1.57,
            1.67,
            1.83,
            2.01,
            2.13,
            2.28,
            2.45,
            2.6,
            2.95,
            3.07,
            3.22,
            3.55,
            3.73,
            3.89,
            4.21,
            4.37,
            4.53,
            4.91,
            5.1,
            5.24,
            5.62,
            5.82,
            5.99,
            6.34,
            6.6,
            6.77,
            7.12,
            7.32,
            7.57,
            7.94,
            8.140001,
            8.32,
            8.729999,
            8.859999,
            9.08,
            9.47,
            9.68,
            9.899999,
            10.32,
            10.53,
            10.69,
            11.1,
            11.32,
            11.5,
            11.92,
            12.1,
            12.53,
            12.73,
            12.93,
            13.3,
            13.53,
            13.74,
            14.12,
            14.28,
            14.55,
            14.93,
            15.13,
            15.52,
            15.69,
            16.14,
            16.38,
            16.8,
            17.0,
            17.43,
            17.58,
            18.01,
            18.23,
            19.0,
            19.42,
            19.88,
            19.47,
            19.04,
            18.71,
            18.49,
            18.28,
            18.0,
            17.49,
            17.17,
            16.81,
            16.52,
            16.21,
            15.93,
            15.71,
            15.44,
            15.15,
            14.88,
            14.68,
            14.4,
            14.14,
            13.91,
            13.66,
            13.4,
            13.1,
            12.87,
            12.62,
            12.34,
            12.11,
            11.87,
            11.56,
            11.31,
            11.08,
            10.84,
            10.54,
            10.32,
            10.02,
            9.83,
            9.57,
            9.3,
            8.810001,
            8.560001,
            8.33,
            8.09,
            7.86,
            7.64,
            7.37,
            7.14,
            6.9,
            6.67,
            6.24,
            6.03,
            5.81,
            5.4,
            5.23,
            5.06,
            4.78,
            4.63,
            4.42,
            4.11,
            3.98,
            3.85,
            3.59,
            3.4,
            3.28,
            3.08,
            2.83,
            2.78,
            2.59,
            2.23,
            2.06,
            1.89,
            1.54,
            1.37,
            1.22,
            0.82,
            0.64,
            0.5,
            0.16,
            -0.03,
            -0.24,
            -0.59,
            -0.81,
            -0.98,
            -1.19,
            -1.44,
            -1.69,
            -2.04,
            -2.21,
            -2.4,
            -2.8,
            -3.0,
            -3.42,
            -3.58,
            -3.76,
            -4.19,
            -4.37,
            -4.55,
            -4.94,
            -5.13,
            -5.31,
            -5.74,
            -5.95,
            -6.14,
            -6.55,
            -6.79,
            -6.98,
            -7.4,
            -7.68,
            -8.140001,
            -8.350001,
            -8.55,
            -8.99,
            -9.21,
            -9.66,
            -9.91,
            -10.34,
            -10.6,
            -11.08,
            -11.3,
            -11.8,
            -12.02,
            -12.26,
            -12.73,
            -12.99,
            -13.21,
            -13.71,
            -13.97,
            -14.43,
            -14.67,
            -15.18,
            -15.43,
            -15.88,
            -16.15,
            -16.64,
            -16.86,
            -17.36,
            -17.63,
            -18.11,
            -18.37,
            -18.87,
            -19.15,
            -19.73,
            -19.94,
            -20.21,
            -20.69,
            -20.91,
            -21.45,
            -21.7,
            -21.93,
            -22.47,
            -22.74,
            -23.35,
            -24.22,
            -24.77,
            -24.61,
            -24.3,
            -23.95,
            -23.7,
            -23.46,
            -23.26,
            -22.95,
            -22.71,
            -22.49,
            -22.25,
            -22.02,
            -21.49,
            -21.24,
            -21.0,
            -20.78,
            -20.52,
            -20.26,
            -20.03,
            -19.79,
            -19.52,
            -19.06,
            -18.82,
            -18.57,
            -18.31,
            -18.08,
            -17.6,
            -17.34,
            -17.1,
            -16.86,
            -16.62,
            -16.14,
            -15.89,
            -15.69,
            -15.41,
            -15.19,
            -14.94,
            -14.72,
            -14.25,
            -14.01,
            -13.79,
            -13.27,
            -13.05,
            -12.82,
            -12.6,
            -12.36,
            -11.9,
            -11.64,
            -11.43,
            -11.16,
            -10.97,
            -10.7,
            -10.44,
            -10.2,
            -9.97,
            -9.74,
            -9.51,
            -9.24,
            -9.01,
            -8.75,
            -8.54,
            -8.310001,
            -8.05,
            -7.79,
            -7.57,
            -7.35,
            -7.13,
            -6.66,
            -6.44,
            -6.2,
            -5.73,
            -5.48,
            -5.3,
            -4.85,
            -4.64,
            -4.4,
            -3.97,
            -3.78,
            -3.57,
            -3.25,
            -3.23,
            -2.82,
            -2.65,
            -2.46,
            -2.05,
            -1.92,
            -1.78,
            -1.46,
            -1.34,
            -1.14,
            -0.91,
            -0.77,
            -0.62,
            -0.25,
            -0.05,
            0.14,
            0.52,
            0.74,
            0.93,
            1.37,
            1.64,
            1.86,
            2.12,
            2.38,
            2.61,
            2.86,
            3.12,
            3.38,
            3.64,
            3.88,
            4.17,
            4.4,
            4.68,
            5.21,
            5.49,
            5.77,
            6.03,
            6.3,
            6.63,
            6.91,
            7.18,
            7.45,
            7.74,
            7.98,
            8.270001,
            8.560001,
            8.84,
            9.12,
            9.390001,
            9.68,
            9.97,
            10.24,
            10.55,
            10.83,
            11.1,
            11.4,
            11.7,
            11.95,
            12.26,
            12.54,
            12.82,
            13.1,
            13.39,
            13.7,
            13.95,
            14.23,
            14.52,
            14.81,
            15.09,
            15.39,
            15.7,
            15.94,
            16.23,
            16.51,
            16.82,
            17.09,
            17.37,
            17.64,
            17.93,
            18.27,
            18.53,
            18.82,
            19.13,
            19.74,
            20.02,
            20.53,
            21.14,
            21.48,
            21.77,
            22.35,
            22.66,
            23.37,
            23.79,
            24.2,
            24.86,
            25.5,
            25.91,
            26.57,
            27.39,
            28.18,
            29.48,
            29.91,
            30.68,
            31.49,
            31.96,
            32.76,
            34.05,
            34.52,
            35.34,
            35.83,
            36.66,
            37.46,
            37.94,
            38.79,
            39.2,
            39.65,
            40.49,
            41.31,
            41.74,
            42.75,
            42.8,
            42.75,
            42.53,
            42.26,
            42.02,
            41.74,
            41.47,
            41.18,
            40.94,
            40.65,
            40.37,
            39.88,
            39.63,
            39.36,
            39.07,
            38.83,
            38.55,
            38.29,
            38.01,
            37.73,
            37.48,
            37.25,
            36.96,
            36.7,
            36.42,
            36.15,
            35.86,
            35.59,
            35.36,
            35.08,
            34.83,
            34.54,
            34.27,
            34.01,
            33.78,
            33.48,
            33.26,
            32.96,
            32.69,
            32.44,
            32.14,
            31.88,
            31.63,
            31.35,
            31.1,
            30.83,
            30.56,
            30.31,
            30.04,
            29.77,
            29.53,
            29.26,
            29.02,
            28.76,
            28.51,
            28.14,
            27.84,
            27.53,
            27.33,
            27.01,
            26.58,
            26.31,
            26.1,
            25.64,
            25.47,
            25.13,
            24.91,
            24.64,
            24.25,
            24.01,
            23.75,
            23.51,
            23.36,
            22.96,
            22.79,
            22.41,
            22.25,
            21.92,
            21.66,
            21.26,
            21.04,
            20.59,
            20.35,
            19.88,
            19.62,
            19.14,
            18.9,
            18.4,
            18.15,
            17.91,
            17.43,
            17.16,
            16.64,
            16.37,
            15.88,
            15.58,
            15.07,
            14.8,
            14.54,
            14.0,
            13.71,
            13.17,
            12.9,
            12.56,
            11.71,
            11.42,
            10.89,
            10.57,
            10.0,
            9.689999,
            9.42,
            8.859999,
            8.560001,
            7.67,
            7.37,
            6.52,
            6.15,
            5.38,
            5.06,
            4.48,
            4.2,
            3.62,
            3.01,
            2.75,
            2.17,
            1.86,
            1.34,
            1.04,
            0.51,
            0.19,
            -0.04,
            -0.59,
            -0.87,
            -1.47,
            -1.7,
            -2.24,
            -2.47,
            -2.99,
            -3.26,
            -3.48,
            -4.06,
            -4.3,
            -4.81,
            -5.07,
            -5.53,
            -5.83,
            -6.1,
            -6.6,
            -6.86,
            -7.33,
            -7.56,
            -8.05,
            -8.36,
            -9.07,
            -9.350001,
            -9.84,
            -10.09,
            -10.58,
            -10.82,
            -11.09,
            -11.6,
            -11.85,
            -12.34,
            -12.6,
            -13.13,
            -13.37,
            -13.84,
            -14.11,
            -14.35,
            -14.86,
            -15.14,
            -15.9,
            -16.2,
            -16.67,
            -16.94,
            -17.53,
            -17.77,
            -18.3,
            -18.54,
            -18.82,
            -19.34,
            -19.63,
            -20.2,
            -20.73,
            -21.01,
            -21.6,
            -21.93,
            -22.34,
            -23.0,
            -23.58,
            -23.86,
            -24.48,
            -25.43,
            -25.76,
            -26.43,
            -27.14,
            -27.79,
            -28.45,
            -29.46,
            -30.15,
            -30.81,
            -31.49,
            -31.77,
            -32.57,
            -33.22,
            -33.93,
            -34.65,
            -35.4,
            -36.12,
            -36.85,
            -37.62,
            -38.42,
            -39.13,
            -39.87,
            -40.68,
            -41.48,
            -41.86,
            -42.26,
            -43.03,
            -44.17,
            -44.99,
            -45.76,
            -46.92,
            -47.68,
            -48.55,
            -49.33,
            -49.7,
            -50.5,
            -51.32,
            -52.48,
            -53.58,
            -53.88,
            -53.69,
            -53.36,
            -53.23,
            -52.71,
            -52.45,
            -52.18,
            -51.93,
            -51.68,
            -51.4,
            -51.15,
            -50.82,
            -50.48,
            -50.11,
            -49.89,
            -49.61,
            -49.35,
            -49.1,
            -48.86,
            -48.63,
            -48.35,
            -48.09,
            -47.83,
            -47.58,
            -47.33,
            -47.06,
            -46.79,
            -46.56,
            -46.29,
            -45.77,
            -45.54,
            -45.25,
            -45.04,
            -44.75,
            -44.51,
            -44.26,
            -43.98,
            -43.76,
            -43.51,
            -43.25,
            -42.98,
            -42.74,
            -42.49,
            -42.26,
            -41.96,
            -41.71,
            -41.43,
            -41.22,
            -40.92,
            -40.67,
            -40.38,
            -40.13,
            -39.88,
            -39.64,
            -39.32,
            -39.08,
            -38.8,
            -38.31,
            -37.99,
            -37.75,
            -37.45,
            -36.97,
            -36.67,
            -36.4,
            -36.13,
            -35.86,
            -35.6,
            -35.33,
            -35.05,
            -34.78,
            -34.54,
            -34.27,
            -33.66,
            -33.44,
            -33.17,
            -32.86,
            -32.62,
            -32.35,
            -32.1,
            -31.75,
            -31.52,
            -31.25,
            -30.99,
            -30.71,
            -30.4,
            -30.15,
            -29.9,
            -29.6,
            -29.37,
            -28.85,
            -28.56,
            -28.1,
            -28.0,
            -27.61,
            -27.35,
            -27.11,
            -26.85,
            -26.56,
            -26.09,
            -25.91,
            -25.47,
            -25.25,
            -24.9,
            -24.74,
            -24.13,
            -23.9,
            -23.51,
            -23.03,
            -22.74,
            -22.23,
            -21.95,
            -21.65,
            -21.08,
            -20.74,
            -20.17,
            -19.91,
            -19.3,
            -18.99,
            -18.36,
            -18.02,
            -17.36,
            -17.05,
            -16.39,
            -16.03,
            -15.38,
            -15.04,
            -14.32,
            -13.98,
            -13.28,
            -12.93,
            -12.22,
            -11.88,
            -11.17,
            -10.83,
            -10.13,
            -9.74,
            -9.42,
            -8.75,
            -8.399999,
            -8.01,
            -7.34,
            -6.97,
            -6.29,
            -5.95,
            -5.27,
            -4.57,
            -4.24,
            -3.54,
            -3.17,
            -2.51,
            -2.18,
            -1.47,
            -1.17,
            -0.8,
            -0.09000001,
            0.2,
            0.85,
            1.21,
            1.85,
            2.16,
            2.83,
            3.15,
            3.81,
            4.17,
            4.46,
            4.79,
            5.46,
            5.86,
            6.29,
            6.76,
            7.41,
            7.68,
            8.350001,
            8.689999,
            9.350001,
            9.68,
            10.32,
            10.63,
            11.3,
            11.63,
            12.27,
            12.64,
            12.96,
            13.64,
            13.97,
            14.31,
            14.98,
            15.34,
            15.71,
            16.35,
            16.73,
            17.01,
            17.74,
            18.02,
            18.44,
            19.13,
            19.83,
            20.2,
            20.53,
            21.22,
            21.94,
            22.32,
            22.98,
            23.73,
            24.43,
            24.84,
            25.55,
            26.28,
            27.0,
            27.36,
            27.75,
            28.49,
            29.24,
            29.96,
            30.72,
            31.49,
            32.23,
            33.03,
            33.79,
            34.6,
            35.35,
            36.11,
            36.88,
            37.66,
            38.5,
            39.34,
            40.16,
            40.93,
            41.76,
            42.56,
            42.79,
            42.56,
            42.1,
            41.61,
            41.17,
            40.93,
            40.61,
            40.28,
            39.92,
            39.45,
            39.19,
            38.88,
            38.48,
            38.11,
            37.8,
            37.39,
            37.07,
            36.71,
            36.38,
            36.08,
            35.65,
            35.37,
            34.98,
            34.63,
            34.24,
            33.97,
            33.52,
            33.24,
            32.84,
            32.58,
            32.17,
            31.83,
            31.49,
            31.14,
            30.77,
            30.41,
            30.07,
            29.77,
            29.37,
            29.14,
            28.83,
            28.47,
            28.1,
            27.8,
            27.44,
            27.14,
            26.81,
            26.48,
            26.29,
            25.95,
            25.62,
            25.38,
            25.19,
            24.62,
            24.35,
            24.01,
            23.67,
            23.45,
            22.98,
            22.68,
            22.4,
            21.96,
            21.87,
            21.36,
            21.22,
            20.8,
            20.47,
            20.19,
            19.89,
            19.59,
            19.15,
            18.91,
            18.56,
            18.16,
            17.99,
            17.64,
            17.22,
            17.02,
            16.67,
            16.32,
            15.89,
            15.61,
            15.29,
            14.97,
            14.56,
            14.18,
            13.5,
            13.18,
            12.73,
            12.36,
            11.58,
            11.02,
            10.66,
            10.32,
            9.560001,
            9.25,
            8.53,
            8.13,
            7.41,
            6.97,
            6.27,
            5.94,
            5.07,
            4.74,
            4.4,
            3.62,
            3.16,
            2.42,
            2.09,
            1.26,
            0.92,
            0.16,
            -0.21,
            -0.91,
            -1.34,
            -2.1,
            -2.42,
            -2.82,
            -3.13,
            -3.94,
            -4.31,
