{
    "Name": "Galeota et al. 1996, BB4",
    "Type": "Rectangular",
    "fpc": 80.0,
    "fyt": 430.0,
    "fsut": 0.0,
    "fyl": 430.0,
    "fsul": 0.0,
    "Width": 250.0,
    "Depth": 250.0,
    "L_Inflection": 1140.0,
    "L_Measured": 1140.0,
    "TestConfiguration": "Double Ended",
    "AxLoad": 1500.0,
    "P_Delta": "Shear provided",
    "dlb": 20.0,
    "dlb_c": 20.0,
    "nlb": 12.0,
    "cc_per": 30.0,
    "nib_per": 2.0,
    "cc_par": 30.0,
    "nib_par": 2.0,
    "SubType": "RI: Rectangular and interlocking ties",
    "nsl": 4.0,
    "dtb_rcs": 8.0,
    "s_rcs": 100.0,
    "FailureType": "Flexure",
    "data": {
        "disp": [
            0.09,
            0.16,
            0.24,
            0.31,
            0.39,
            0.46,
            0.53,
            0.6,
            0.7,
            0.78,
            0.86,
            0.96,
            1.03,
            1.14,
            1.24,
            1.34,
            1.41,
            1.51,
            1.61,
            1.71,
            1.79,
            1.86,
            1.94,
            2.02,
            2.11,
            2.2,
            2.29,
            2.39,
            2.54,
            2.63,
            2.73,
            2.83,
            2.92,
            3.04,
            3.13,
            3.22,
            3.31,
            3.4,
            3.54,
            3.64,
            3.74,
            3.84,
            3.94,
            4.04,
            4.14,
            4.25,
            4.35,
            4.46,
            4.56,
            4.66,
            4.77,
            4.87,
            4.97,
            5.07,
            5.23,
            5.38,
            5.49,
            5.58,
            5.74,
            5.85,
            6.0,
            6.16,
            6.27,
            6.43,
            6.58,
            6.75,
            6.91,
            7.07,
            7.23,
            7.4,
            7.51,
            7.73,
            7.91,
            8.01,
            8.18,
            8.41,
            8.58,
            8.75,
            8.92,
            9.05,
            9.31,
            9.49,
            9.72,
            9.89,
            10.12,
            10.29,
            10.47,
            10.71,
            10.94,
            11.18,
            11.42,
            11.65,
            11.83,
            12.12,
            12.36,
            12.66,
            12.9,
            13.14,
            13.44,
            13.74,
            13.98,
            14.28,
            14.52,
            14.76,
            15.11,
            15.41,
            15.71,
            16.01,
            16.24,
            16.6,
            16.9,
            17.21,
            17.86,
            18.5,
            19.22,
            19.45,
            19.5,
            19.4,
            19.29,
            19.16,
            19.05,
            18.93,
            18.81,
            18.69,
            18.56,
            18.45,
            18.33,
            18.17,
            18.05,
            17.93,
            17.78,
            17.61,
            17.48,
            17.32,
            17.13,
            17.01,
            16.81,
            16.68,
            16.49,
            16.36,
            16.18,
            16.05,
            15.86,
            15.67,
            15.53,
            15.35,
            15.17,
            15.04,
            14.92,
            14.73,
            14.6,
            14.41,
            14.28,
            14.09,
            13.97,
            13.77,
            13.6,
            13.41,
            13.21,
            13.09,
            12.9,
            12.77,
            12.59,
            12.4,
            12.19,
            12.0,
            11.86,
            11.67,
            11.5,
            11.35,
            11.13,
            10.92,
            10.78,
            10.64,
            10.5,
            10.35,
            10.2,
            10.06,
            9.85,
            9.71,
            9.57,
            9.43,
            9.29,
            9.08,
            8.93,
            8.76,
            8.57,
            8.39,
            8.21,
            8.04,
            7.85,
            7.67,
            7.5,
            7.32,
            7.15,
            6.98,
            6.8,
            6.65,
            6.48,
            6.32,
            6.16,
            6.01,
            5.85,
            5.71,
            5.57,
            5.43,
            5.3,
            5.17,
            5.03,
            4.91,
            4.78,
            4.63,
            4.48,
            4.29,
            4.13,
            3.99,
            3.88,
            3.77,
            3.62,
            3.51,
            3.36,
            3.22,
            3.11,
            2.97,
            2.87,
            2.76,
            2.64,
            2.53,
            2.41,
            2.3,
            2.18,
            2.06,
            1.93,
            1.81,
            1.67,
            1.54,
            1.41,
            1.28,
            1.16,
            1.02,
            0.88,
            0.75,
            0.61,
            0.46,
            0.33,
            0.21,
            0.08,
            -0.06,
            -0.18,
            -0.31,
            -0.44,
            -0.64,
            -0.77,
            -0.89,
            -1.02,
            -1.15,
            -1.27,
            -1.4,
            -1.53,
            -1.67,
            -1.86,
            -1.99,
            -2.12,
            -2.28,
            -2.52,
            -2.66,
            -2.8,
            -2.94,
            -3.09,
            -3.3,
            -3.44,
            -3.59,
            -3.74,
            -3.88,
            -4.09,
            -4.23,
            -4.37,
            -4.55,
            -4.72,
            -4.85,
            -5.04,
            -5.21,
            -5.39,
            -5.57,
            -5.7,
            -5.88,
            -6.06,
            -6.24,
            -6.43,
            -6.56,
            -6.74,
            -6.97,
            -7.16,
            -7.35,
            -7.54,
            -7.77,
            -7.97,
            -8.16,
            -8.35,
            -8.54,
            -8.73,
            -8.97,
            -9.22,
            -9.47,
            -9.71,
            -9.91,
            -10.1,
            -10.4,
            -10.6,
            -10.85,
            -11.15,
            -11.45,
            -11.71,
            -12.02,
            -12.39,
            -12.68,
            -13.03,
            -13.35,
            -13.6,
            -13.93,
            -14.3,
            -14.7,
            -15.09,
            -15.4,
            -15.71,
            -16.02,
            -16.38,
            -16.7,
            -17.09,
            -17.43,
            -17.83,
            -18.38,
            -18.88,
            -19.57,
            -20.15,
            -20.7,
            -21.14,
            -21.58,
            -22.0,
            -22.54,
            -22.99,
            -23.11,
            -23.01,
            -22.85,
            -22.69,
            -22.52,
            -22.36,
            -22.19,
            -21.97,
            -21.81,
            -21.64,
            -21.48,
            -21.31,
            -21.14,
            -20.98,
            -20.8,
            -20.64,
            -20.46,
            -20.3,
            -20.14,
            -19.9,
            -19.74,
            -19.57,
            -19.34,
            -19.12,
            -18.89,
            -18.72,
            -18.55,
            -18.38,
            -18.16,
            -17.99,
            -17.76,
            -17.54,
            -17.37,
            -17.19,
            -17.0,
            -16.8,
            -16.61,
            -16.42,
            -16.22,
            -16.02,
            -15.84,
            -15.64,
            -15.45,
            -15.26,
            -15.07,
            -14.88,
            -14.69,
            -14.49,
            -14.3,
            -14.11,
            -13.85,
            -13.66,
            -13.47,
            -13.29,
            -13.09,
            -12.88,
            -12.66,
            -12.45,
            -12.25,
            -12.03,
            -11.89,
            -11.68,
            -11.47,
            -11.27,
            -11.05,
            -10.92,
            -10.71,
            -10.49,
            -10.29,
            -10.06,
            -9.84,
            -9.63,
            -9.42,
            -9.21,
            -9.0,
            -8.78,
            -8.5,
            -8.29,
            -8.08,
            -7.95,
            -7.74,
            -7.54,
            -7.35,
            -7.15,
            -6.97,
            -6.77,
            -6.59,
            -6.46,
            -6.27,
            -6.15,
            -5.95,
            -5.82,
            -5.63,
            -5.5,
            -5.31,
            -5.18,
            -5.0,
            -4.87,
            -4.74,
            -4.55,
            -4.37,
            -4.19,
            -4.07,
            -3.89,
            -3.72,
            -3.55,
            -3.38,
            -3.27,
            -3.08,
            -2.91,
            -2.82,
            -2.67,
            -2.51,
            -2.36,
            -2.18,
            -2.06,
            -1.84,
            -1.71,
            -1.58,
            -1.45,
            -1.3,
            -1.16,
            -1.0,
            -0.89,
            -0.73,
            -0.57,
            -0.41,
            -0.25,
            -0.13,
            0.04,
            0.16,
            0.28,
            0.4,
            0.6,
            0.73,
            0.87,
            1.01,
            1.15,
            1.3,
            1.45,
            1.6,
            1.76,
            1.92,
            2.08,
            2.25,
            2.41,
            2.57,
            2.74,
            2.9,
            3.08,
            3.25,
            3.41,
            3.57,
            3.74,
            3.91,
            4.09,
            4.26,
            4.42,
            4.6,
            4.76,
            4.94,
            5.16,
            5.34,
            5.52,
            5.7,
            5.88,
            6.07,
            6.34,
            6.52,
            6.7,
            6.97,
            7.17,
            7.34,
            7.54,
            7.82,
            8.0,
            8.21,
            8.47,
            8.75,
            9.03,
            9.31,
            9.59,
            9.77,
            10.05,
            10.34,
            10.64,
            10.94,
            11.24,
            11.43,
            11.63,
            11.93,
            12.23,
            12.53,
            12.82,
            13.13,
            13.32,
            13.62,
            13.92,
            14.22,
            14.51,
            14.82,
            15.12,
            15.33,
            15.63,
            15.93,
            16.23,
            16.54,
            16.84,
            17.16,
            17.89,
            18.21,
            18.64,
            19.07,
            19.65,
            20.2,
            20.65,
            20.74,
            20.86,
            21.33,
            21.72,
            22.21,
            22.71,
            23.25,
            23.77,
            24.31,
            24.87,
            25.44,
            26.01,
            26.57,
            27.12,
            27.7,
            28.28,
            28.86,
            29.46,
            30.05,
            30.66,
            31.45,
            32.07,
            32.72,
            33.38,
            34.05,
            34.92,
            35.79,
            36.39,
            37.28,
            38.03,
            38.94,
            39.45,
            39.54,
            39.68,
            40.15,
            40.01,
            39.85,
            39.68,
            39.51,
            39.34,
            39.16,
            39.0,
            38.81,
            38.63,
            38.45,
            38.3,
            38.13,
            37.95,
            37.79,
            37.61,
            37.44,
            37.26,
            37.09,
            36.92,
            36.75,
            36.57,
            36.41,
            36.22,
            36.06,
            35.89,
            35.71,
            35.52,
            35.37,
            35.19,
            35.01,
            34.85,
            34.66,
            34.5,
            34.22,
            34.07,
            33.8,
            33.61,
            33.46,
            33.19,
            33.02,
            32.85,
            32.58,
            32.42,
            32.14,
            31.97,
            31.72,
            31.53,
            31.34,
            31.15,
            30.87,
            30.68,
            30.41,
            30.23,
            30.03,
            29.85,
            29.57,
            29.39,
            29.12,
            28.93,
            28.65,
            28.36,
            28.18,
            27.91,
            27.72,
            27.45,
            27.26,
            26.98,
            26.8,
            26.53,
            26.26,
            25.99,
            25.72,
            25.54,
            25.29,
            25.1,
            24.85,
            24.59,
            24.32,
            24.07,
            23.82,
            23.57,
            23.33,
            23.11,
            22.87,
            22.57,
            22.29,
            22.06,
            21.83,
            21.55,
            21.35,
            21.1,
            20.83,
            20.56,
            20.32,
            19.91,
            19.61,
            19.32,
            18.97,
            18.67,
            18.37,
            18.09,
            17.76,
            17.45,
            16.9,
            16.56,
            16.3,
            15.96,
            15.73,
            15.38,
            15.14,
            14.76,
            14.44,
            14.23,
            13.94,
            13.62,
            13.33,
            13.01,
            12.77,
            12.46,
            12.09,
            11.78,
            11.23,
            10.92,
            10.62,
            10.31,
            10.0,
            9.68,
            9.31,
            8.93,
            8.55,
            8.24,
            7.86,
            7.54,
            7.16,
            6.77,
            6.39,
            6.07,
            5.49,
            5.18,
            4.93,
            4.62,
            4.3,
            4.03,
            3.71,
            3.31,
            2.93,
            2.6,
            2.29,
            1.91,
            1.59,
            1.27,
            0.96,
            0.65,
            0.33,
            0.02,
            -0.29,
            -0.6,
            -0.9,
            -1.39,
            -1.69,
            -1.93,
            -2.23,
            -2.47,
            -2.76,
            -3.07,
            -3.31,
            -3.6,
            -3.91,
            -4.14,
            -4.43,
            -4.74,
            -4.98,
            -5.28,
            -5.52,
            -5.82,
            -6.11,
            -6.41,
            -6.71,
            -7.25,
            -7.54,
            -7.83,
            -8.06,
            -8.36,
            -8.65,
            -8.94,
            -9.23,
            -9.53,
            -9.83,
            -10.12,
            -10.42,
            -10.77,
            -11.13,
            -11.46,
            -11.94,
            -12.25,
            -12.55,
            -12.89,
            -13.24,
            -13.62,
            -13.98,
            -14.4,
            -14.76,
            -15.12,
            -15.55,
            -15.92,
            -16.34,
            -16.77,
            -17.27,
            -17.7,
            -17.83,
            -18.25,
            -18.68,
            -19.17,
            -19.61,
            -20.1,
            -20.64,
            -21.2,
            -21.72,
            -22.31,
            -22.76,
            -23.31,
            -23.84,
            -24.37,
            -24.92,
            -25.41,
            -25.85,
            -26.39,
            -26.97,
            -27.49,
            -28.08,
            -28.57,
            -29.09,
            -29.6,
            -30.12,
            -30.67,
            -31.2,
            -31.75,
            -32.31,
            -32.88,
            -33.44,
            -33.98,
            -34.55,
            -35.13,
            -35.75,
            -36.36,
            -36.56,
            -37.05,
            -37.61,
            -38.19,
            -38.71,
            -39.23,
            -39.75,
            -40.28,
            -40.47,
            -40.93,
            -41.39,
            -41.87,
            -42.27,
            -42.67,
            -43.08,
            -43.46,
            -43.81,
            -43.98,
            -44.32,
            -44.37,
            -44.77,
            -44.97,
            -44.76,
            -44.55,
            -44.32,
            -44.11,
            -43.92,
            -43.69,
            -43.49,
            -43.23,
            -42.72,
            -42.51,
            -42.28,
            -42.08,
            -41.86,
            -41.65,
            -41.43,
            -41.21,
            -40.99,
            -40.71,
            -40.53,
            -40.34,
            -40.08,
            -39.81,
            -39.62,
            -39.36,
            -39.1,
            -38.91,
            -38.67,
            -38.39,
            -38.05,
            -37.78,
            -37.58,
            -37.33,
            -37.06,
            -36.78,
            -36.51,
            -36.25,
            -35.98,
            -35.8,
            -35.54,
            -35.27,
            -35.0,
            -34.75,
            -34.48,
            -34.21,
            -33.94,
            -33.75,
            -33.48,
            -33.22,
            -32.95,
            -32.59,
            -32.32,
            -32.04,
            -31.67,
            -31.3,
            -31.02,
            -30.74,
            -30.38,
            -30.01,
            -29.72,
            -29.45,
            -29.17,
            -28.89,
            -28.63,
            -28.35,
            -28.07,
            -27.79,
            -27.52,
            -27.25,
            -26.98,
            -26.71,
            -26.42,
            -26.15,
            -25.87,
            -25.59,
            -25.32,
            -25.04,
            -24.72,
            -24.36,
            -24.09,
            -23.8,
            -23.52,
            -23.24,
            -22.96,
            -22.67,
            -22.4,
            -22.11,
            -21.83,
            -21.47,
            -21.18,
            -20.82,
            -20.54,
            -20.27,
            -19.91,
            -19.54,
            -19.18,
            -18.76,
            -18.47,
            -17.98,
            -17.75,
            -17.51,
            -17.15,
            -16.8,
            -16.49,
            -16.16,
            -15.79,
            -15.31,
            -14.83,
            -14.52,
            -14.26,
            -14.0,
            -13.67,
            -13.41,
            -13.06,
            -12.69,
            -12.33,
            -11.97,
            -11.6,
            -11.25,
            -10.88,
            -10.52,
            -10.14,
            -9.66,
            -9.26,
            -8.77,
            -8.38,
            -8.07,
            -7.66,
            -7.24,
            -6.83,
            -6.42,
            -6.11,
            -5.69,
            -5.27,
            -4.86,
            -4.44,
            -4.01,
            -3.7,
            -3.28,
            -2.97,
            -2.54,
            -2.23,
            -1.91,
            -1.49,
            -1.19,
            -0.64,
            -0.31,
            0.1,
            0.42,
            0.73,
            1.16,
            1.58,
            1.9,
            2.31,
            2.63,
            3.01,
            3.42,
            3.73,
            4.06,
            4.49,
            4.92,
            5.36,
