{
    "Name": "Galeota et al. 1996, BA2",
    "Type": "Rectangular",
    "fpc": 80.0,
    "fyt": 430.0,
    "fsut": 0.0,
    "fyl": 430.0,
    "fsul": 0.0,
    "Width": 250.0,
    "Depth": 250.0,
    "L_Inflection": 1140.0,
    "L_Measured": 1140.0,
    "TestConfiguration": "Double Ended",
    "AxLoad": 1500.0,
    "P_Delta": "Shear provided",
    "dlb": 10.0,
    "dlb_c": 10.0,
    "nlb": 12.0,
    "cc_per": 30.0,
    "nib_per": 2.0,
    "cc_par": 30.0,
    "nib_par": 2.0,
    "SubType": "RI: Rectangular and interlocking ties",
    "nsl": 4.0,
    "dtb_rcs": 8.0,
    "s_rcs": 100.0,
    "FailureType": "Flexure",
    "data": {
        "disp": [
            0.17,
            0.32,
            0.23,
            0.45,
            0.48,
            0.55,
            0.66,
            0.6,
            0.88,
            1.04,
            0.9,
            1.17,
            1.28,
            1.32,
            1.34,
            1.47,
            1.57,
            1.64,
            1.87,
            1.95,
            2.07,
            1.97,
            2.11,
            2.23,
            2.41,
            2.43,
            2.62,
            2.69,
            2.76,
            3.03,
            3.06,
            3.1,
            3.2,
            3.34,
            3.33,
            3.59,
            3.54,
            3.77,
            3.89,
            3.96,
            4.03,
            4.18,
            4.53,
            4.48,
            4.54,
            4.81,
            4.87,
            5.04,
            5.33,
            5.43,
            5.56,
            5.78,
            5.98,
            6.29,
            6.27,
            6.64,
            6.82,
            7.0,
            7.1,
            7.42,
            7.61,
            7.79,
            7.91,
            8.11,
            8.29,
            8.69,
            8.81,
            9.07,
            9.2,
            9.46,
            9.83,
            9.96,
            10.32,
            10.79,
            11.05,
            11.21,
            11.72,
            11.95,
            12.44,
            12.82,
            13.34,
            13.65,
            14.08,
            14.69,
            15.52,
            16.18,
            16.76,
            16.83,
            16.92,
            16.84,
            16.72,
            16.58,
            16.33,
            16.28,
            16.12,
            15.9,
            15.74,
            15.53,
            15.38,
            15.12,
            14.96,
            14.74,
            14.44,
            14.19,
            13.97,
            13.78,
            13.62,
            13.44,
            13.11,
            12.93,
            12.71,
            12.52,
            12.38,
            12.3,
            11.98,
            11.81,
            11.5,
            11.36,
            11.05,
            10.85,
            10.71,
            10.45,
            10.19,
            10.05,
            9.76,
            9.52,
            9.41,
            9.2,
            9.1,
            8.96,
            8.69,
            8.6,
            8.27,
            8.11,
            7.93,
            7.69,
            7.48,
            7.36,
            7.15,
            6.97,
            6.82,
            6.62,
            6.48,
            6.35,
            6.2,
            5.98,
            5.73,
            5.59,
            5.52,
            5.18,
            5.01,
            4.9,
            4.67,
            4.61,
            4.35,
            4.11,
            3.84,
            3.73,
            3.55,
            3.43,
            3.22,
            3.15,
            2.91,
            2.82,
            2.81,
            2.5,
            2.45,
            2.26,
            2.16,
            2.11,
            1.94,
            1.83,
            1.6,
            1.5,
            1.35,
            1.33,
            1.04,
            0.89,
            0.62,
            0.56,
            0.48,
            0.35,
            0.14,
            -0.12,
            -0.19,
            -0.41,
            -0.43,
            -0.59,
            -0.69,
            -0.9,
            -0.92,
            -1.11,
            -1.21,
            -1.54,
            -1.66,
            -1.67,
            -1.88,
            -2.0,
            -2.24,
            -2.32,
            -2.5,
            -2.7,
            -2.78,
            -3.0,
            -3.15,
            -3.32,
            -3.42,
            -3.68,
            -3.87,
            -3.88,
            -4.07,
            -4.31,
            -4.38,
            -4.68,
            -4.67,
            -4.9,
            -5.09,
            -5.23,
            -5.45,
            -5.52,
            -5.82,
            -6.26,
            -6.45,
            -6.57,
            -6.82,
            -6.97,
            -7.21,
            -7.46,
            -7.61,
            -7.84,
            -8.06,
            -8.35,
            -8.62,
            -8.92,
            -9.13,
            -9.41,
            -9.74,
            -10.03,
            -10.29,
            -10.68,
            -11.02,
            -11.28,
            -11.64,
            -12.26,
            -12.47,
            -13.06,
            -13.59,
            -14.14,
            -14.53,
            -15.11,
            -15.7,
            -16.5,
            -16.58,
            -16.88,
            -17.05,
            -17.21,
            -17.3,
            -17.08,
            -16.99,
            -16.84,
            -16.54,
            -16.42,
            -16.19,
            -15.99,
            -15.82,
            -15.57,
            -15.31,
            -15.16,
            -14.95,
            -14.7,
            -14.5,
            -14.3,
            -14.06,
            -13.78,
            -13.64,
            -13.32,
            -13.16,
            -12.88,
            -12.71,
            -12.38,
            -12.19,
            -12.0,
            -11.86,
            -11.54,
            -11.33,
            -11.12,
            -10.99,
            -10.7,
            -10.49,
            -10.29,
            -10.09,
            -9.99,
            -9.72,
            -9.4,
            -9.27,
            -8.97,
            -8.89,
            -8.66,
            -8.53,
            -8.26,
            -8.04,
            -7.79,
            -7.61,
            -7.24,
            -7.13,
            -6.88,
            -6.56,
            -6.25,
            -6.17,
            -5.93,
            -5.81,
            -5.46,
            -5.27,
            -5.15,
            -4.91,
            -4.68,
            -4.49,
            -4.38,
            -4.16,
            -3.92,
            -3.87,
            -3.75,
            -3.55,
            -3.46,
            -3.22,
            -3.07,
            -2.86,
            -2.77,
            -2.61,
            -2.46,
            -2.29,
            -2.09,
            -1.95,
            -1.85,
            -1.74,
            -1.54,
            -1.39,
            -1.31,
            -1.1,
            -0.89,
            -0.78,
            -0.66,
            -0.45,
            -0.32,
            -0.19,
            -0.2,
            0.12,
            0.2,
            0.3,
            0.58,
            0.68,
            0.74,
            0.94,
            1.0,
            1.22,
            1.34,
            1.52,
            1.69,
            1.81,
            2.04,
            2.18,
            2.36,
            2.49,
            2.7,
            2.82,
            3.03,
            3.13,
            3.35,
            3.51,
            3.76,
            3.91,
            4.07,
            4.23,
            4.49,
            4.51,
            4.83,
            5.0,
            5.23,
            5.35,
            5.5,
            5.76,
            5.91,
            6.27,
            6.38,
            6.58,
            6.86,
            6.96,
            7.2,
            7.46,
            7.77,
            8.06,
            8.29,
            8.67,
            8.82,
            9.1,
            9.47,
            9.93,
            10.26,
            10.79,
            11.24,
            11.75,
            12.26,
            12.74,
            13.24,
            13.77,
            14.24,
            14.82,
            15.45,
            16.02,
            16.63,
            17.31,
            17.97,
            18.61,
            19.25,
            19.68,
            20.25,
            20.76,
            21.34,
            21.93,
            22.59,
            22.98,
            23.5,
            23.89,
            24.51,
            25.07,
            25.43,
            25.93,
            26.47,
            26.92,
            27.43,
            27.88,
            28.44,
            28.97,
            29.49,
            30.05,
            30.57,
            31.18,
            31.84,
            32.36,
            32.88,
            33.45,
            33.97,
            34.57,
            35.07,
            35.61,
            36.12,
            36.4,
            36.09,
            35.86,
            35.59,
            35.45,
            35.2,
            34.92,
            34.64,
            34.38,
            34.09,
            33.9,
            33.62,
            33.42,
            33.12,
            32.95,
            32.58,
            32.54,
            32.27,
            31.97,
            31.69,
            31.42,
            31.2,
            30.92,
            30.65,
            30.44,
            30.15,
            29.9,
            29.63,
            29.3,
            28.97,
            28.7,
            28.41,
            28.16,
            27.92,
            27.63,
            27.26,
            26.92,
            26.61,
            26.25,
            25.93,
            25.62,
            25.23,
            25.08,
            24.8,
            24.4,
            23.94,
            23.59,
            23.35,
            22.89,
            22.4,
            21.97,
            21.45,
            20.89,
            20.42,
            19.88,
            19.37,
            18.85,
            18.3,
            17.73,
            17.24,
            16.6,
            16.15,
            15.65,
            15.2,
            14.62,
            14.11,
            13.58,
            13.1,
            12.55,
            12.01,
            11.5,
            10.82,
            10.31,
            9.79,
            9.18,
            8.63,
            8.02,
            7.47,
            7.07,
            6.48,
            5.95,
            5.62,
            5.13,
            4.59,
            4.05,
            3.46,
            3.08,
            2.68,
            2.34,
            1.93,
            1.47,
            1.07,
            0.75,
            0.32,
            -0.04,
            -0.41,
            -0.73,
            -1.1,
            -1.43,
            -1.8,
            -2.08,
            -2.34,
            -2.71,
            -3.07,
            -3.41,
            -3.78,
            -4.04,
            -4.39,
            -4.76,
            -5.11,
            -5.52,
            -5.85,
            -6.29,
            -6.77,
            -7.15,
            -7.56,
            -7.98,
            -8.47,
            -8.92,
            -9.43,
            -10.01,
            -10.54,
            -10.81,
            -11.31,
            -11.72,
            -12.25,
            -12.82,
            -13.41,
            -13.93,
            -14.44,
            -14.98,
            -15.5,
            -16.03,
            -16.58,
            -17.12,
            -17.49,
            -17.99,
            -18.56,
            -19.13,
            -19.67,
            -20.18,
            -20.8,
            -21.07,
            -21.62,
            -22.14,
            -22.67,
            -22.98,
            -23.5,
            -24.05,
            -24.6,
            -24.99,
            -25.52,
            -26.12,
            -26.61,
            -27.26,
            -27.8,
            -28.05,
            -28.59,
            -29.15,
            -29.67,
            -29.87,
            -30.38,
            -30.97,
            -31.43,
            -32.06,
            -32.65,
            -33.12,
            -33.77,
            -34.33,
            -34.7,
            -35.24,
            -35.83,
            -36.31,
            -36.52,
            -36.39,
            -36.18,
            -36.11,
            -35.8,
            -35.7,
            -35.28,
            -34.99,
            -34.67,
            -34.52,
            -34.33,
            -33.99,
            -33.6,
            -33.45,
            -33.18,
            -32.88,
            -32.58,
            -32.24,
            -31.94,
            -31.64,
            -31.31,
            -30.96,
            -30.7,
            -30.4,
            -30.1,
            -29.63,
            -29.34,
            -28.9,
            -28.7,
            -28.34,
            -27.69,
            -27.35,
            -27.1,
            -26.63,
            -26.33,
            -25.71,
            -25.51,
            -25.22,
            -24.95,
            -24.57,
            -24.13,
            -23.95,
            -23.37,
            -23.33,
            -22.75,
            -22.49,
            -21.86,
            -21.72,
            -21.17,
            -20.77,
            -20.3,
            -19.99,
            -19.71,
            -19.09,
            -18.94,
            -18.26,
            -17.73,
            -17.36,
            -17.13,
            -16.58,
            -16.19,
            -15.76,
            -15.22,
            -14.79,
            -14.28,
            -13.78,
            -13.19,
            -12.57,
            -12.06,
            -11.5,
            -10.87,
            -10.16,
            -9.93,
            -9.43,
            -8.92,
            -8.39,
            -7.92,
            -7.42,
            -6.63,
            -6.31,
            -5.76,
            -5.25,
            -4.86,
            -4.14,
            -3.64,
            -3.15,
            -2.65,
            -2.06,
            -1.84,
            -1.33,
            -0.69,
            -0.19,
            0.0,
            0.62,
            1.2,
            1.75,
            2.42,
            2.95,
            3.26,
            3.78,
            4.28,
            4.78,
            5.45,
            5.85,
            6.36,
            6.89,
            7.46,
            7.99,
            8.54,
            9.16,
            9.25,
            9.73,
            10.35,
            10.91,
            11.42,
            12.06,
            12.21,
            12.75,
            13.33,
            13.32,
            13.92,
            14.57,
            14.71,
            15.22,
            15.8,
            16.47,
            17.01,
            17.58,
            18.27,
            18.87,
            19.37,
            19.98,
            20.21,
            20.73,
            21.42,
            22.01,
            22.54,
            23.0,
            23.55,
            24.08,
            24.31,
            25.08,
            25.53,
            26.22,
            26.86,
            27.37,
            28.01,
            28.17,
            28.79,
            29.42,
            29.55,
            30.18,
            30.7,
            30.81,
            31.33,
            31.9,
            32.12,
            32.65,
            33.47,
            33.5,
            34.0,
            34.76,
            35.33,
            35.98,
            35.95,
            36.58,
            37.2,
            37.23,
            37.43,
            37.61,
            37.16,
            37.07,
            36.53,
            36.55,
            36.24,
            35.92,
            35.5,
            35.29,
            35.4,
            34.86,
            34.83,
            34.45,
            34.27,
            33.92,
            33.68,
            33.45,
            32.94,
            32.73,
            32.65,
            32.15,
            32.06,
            31.8,
            31.28,
            30.97,
            30.84,
            30.37,
            30.14,
            29.62,
            29.2,
            29.16,
            28.65,
            28.33,
            28.27,
            27.79,
            27.27,
            27.04,
            26.66,
            26.2,
            25.55,
            25.22,
            24.89,
            24.26,
            23.62,
            23.33,
            22.79,
            22.16,
            21.55,
            21.1,
            20.56,
            20.17,
            19.64,
            19.3,
            18.4,
            17.91,
            17.22,
            16.57,
            16.28,
            15.64,
            15.03,
            14.49,
            13.82,
            13.32,
            12.82,
            12.28,
            11.68,
            10.99,
            10.34,
            9.74,
            8.94,
            8.34,
            7.82,
            7.29,
            6.52,
            5.73,
            5.19,
            4.6,
            4.01,
            3.38,
            2.88,
            2.27,
            1.55,
            1.05,
            0.43,
            -0.1,
            -0.81,
            -1.51,
            -2.13,
            -2.63,
            -3.15,
            -3.66,
            -4.51,
            -5.13,
            -5.69,
            -6.21,
            -6.92,
            -7.43,
            -7.93,
            -8.59,
            -9.15,
            -9.68,
            -10.23,
            -10.74,
            -11.44,
            -12.06,
            -12.49,
            -13.22,
            -13.75,
            -14.58,
            -15.14,
            -15.91,
            -15.8,
            -16.38,
            -16.96,
            -17.34,
            -17.9,
            -18.46,
            -19.06,
            -19.85,
            -20.3,
            -20.93,
            -21.62,
            -22.14,
            -22.67,
            -23.14,
            -23.83,
            -24.42,
            -25.13,
            -25.3,
            -25.91,
            -26.48,
            -26.79,
            -27.37,
            -28.1,
            -28.83,
            -29.44,
            -30.08,
            -30.78,
            -30.98,
            -31.63,
            -32.06,
            -32.56,
            -33.09,
            -33.43,
            -34.04,
            -34.35,
            -34.89,
            -35.59,
            -36.15,
            -36.83,
            -37.35,
            -37.39,
            -37.41,
            -37.18,
            -37.09,
            -36.65,
            -36.38,
            -36.18,
            -35.99,
            -35.7,
            -35.36,
            -34.99,
            -34.88,
            -34.39,
            -34.17,
            -33.58,
            -33.33,
            -33.0,
            -32.59,
            -32.26,
            -31.6,
            -31.16,
            -30.95,
            -30.45,
            -30.11,
            -29.35,
            -29.08,
            -28.69,
            -28.2,
            -27.83,
            -27.35,
            -27.2,
            -26.69,
            -26.48,
            -25.84,
            -25.48,
            -25.09,
            -24.55,
            -24.01,
            -23.76,
            -23.22,
            -23.03,
            -22.55,
            -21.97,
            -21.46,
            -20.97,
            -20.53,
            -20.01,
            -19.38,
            -18.81,
            -18.26,
            -17.6,
            -16.98,
            -16.44,
            -15.82,
            -15.28,
            -14.73,
            -14.04,
            -13.36,
            -12.73,
            -12.16,
            -11.65,
            -11.19,
            -10.54,
            -10.0,
            -9.43,
            -9.33,
            -8.82,
            -8.32,
            -7.97,
            -7.31,
            -6.74,
            -6.19,
            -5.69,
            -5.48,
            -4.84,
            -4.21,
            -3.51,
            -2.87,
            -2.27,
            -1.55,
            -0.87,
            -0.73,
