{
    "Name": "Galeota et al. 1996, CA3",
    "Type": "Rectangular",
    "fpc": 80.0,
    "fyt": 430.0,
    "fsut": 0.0,
    "fyl": 430.0,
    "fsul": 0.0,
    "Width": 250.0,
    "Depth": 250.0,
    "L_Inflection": 1140.0,
    "L_Measured": 1140.0,
    "TestConfiguration": "Double Ended",
    "AxLoad": 1000.0,
    "P_Delta": "Shear provided",
    "dlb": 10.0,
    "dlb_c": 10.0,
    "nlb": 12.0,
    "cc_per": 30.0,
    "nib_per": 2.0,
    "cc_par": 30.0,
    "nib_par": 2.0,
    "SubType": "RI: Rectangular and interlocking ties",
    "nsl": 4.0,
    "dtb_rcs": 8.0,
    "s_rcs": 50.0,
    "FailureType": "Flexure",
    "data": {
        "disp": [
            0.1,
            0.07,
            0.14,
            0.21,
            0.22,
            0.32,
            0.43,
            0.54,
            0.59,
            0.56,
            0.54,
            0.71,
            0.76,
            0.87,
            0.79,
            0.89,
            1.04,
            0.99,
            1.09,
            1.22,
            1.26,
            1.32,
            1.27,
            1.45,
            1.45,
            1.55,
            1.63,
            1.65,
            1.59,
            1.82,
            1.85,
            1.77,
            1.91,
            2.05,
            2.07,
            2.28,
            2.17,
            2.28,
            2.36,
            2.4,
            2.6,
            2.51,
            2.72,
            2.74,
            2.84,
            2.97,
            3.03,
            3.01,
            3.09,
            3.13,
            3.22,
            3.44,
            3.44,
            3.47,
            3.78,
            3.88,
            4.08,
            4.12,
            4.16,
            4.28,
            4.4,
            4.49,
            4.88,
            4.9,
            4.89,
            5.02,
            5.34,
            5.32,
            5.66,
            5.58,
            5.8,
            6.27,
            6.23,
            6.51,
            6.59,
            6.78,
            7.0,
            7.12,
            7.4,
            7.61,
            7.81,
            7.94,
            8.34,
            8.49,
            8.9,
            9.03,
            9.17,
            9.48,
            9.79,
            10.01,
            10.25,
            10.72,
            10.94,
            11.15,
            11.52,
            11.73,
            12.2,
            12.36,
            12.77,
            13.32,
            13.82,
            14.14,
            14.67,
            15.16,
            15.67,
            16.18,
            16.49,
            16.94,
            17.09,
            17.19,
            17.24,
            17.31,
            17.28,
            17.1,
            16.91,
            16.7,
            16.59,
            16.36,
            16.21,
            16.09,
            15.96,
            15.77,
            15.51,
            15.38,
            15.19,
            15.1,
            14.84,
            14.73,
            14.57,
            14.42,
            14.25,
            14.07,
            13.78,
            13.68,
            13.56,
            13.32,
            13.1,
            13.07,
            12.86,
            12.72,
            12.46,
            12.34,
            12.18,
            12.0,
            11.76,
            11.73,
            11.51,
            11.27,
            11.08,
            11.04,
            10.81,
            10.62,
            10.53,
            10.32,
            10.14,
            9.98,
            9.89,
            9.69,
            9.44,
            9.4,
            9.18,
            9.07,
            8.8,
            8.72,
            8.62,
            8.45,
            8.34,
            8.16,
            7.86,
            7.76,
            7.7,
            7.56,
            7.24,
            7.1,
            6.91,
            6.69,
            6.5,
            6.29,
            6.28,
            6.04,
            5.87,
            5.77,
            5.63,
            5.48,
            5.2,
            5.18,
            4.91,
            4.86,
            4.68,
            4.53,
            4.28,
            4.07,
            3.91,
            3.86,
            3.65,
            3.45,
            3.34,
            3.18,
            2.98,
            2.81,
            2.69,
            2.57,
            2.43,
            2.3,
            2.2,
            2.08,
            1.96,
            1.84,
            1.71,
            1.6,
            1.48,
            1.37,
            1.26,
            1.11,
            1.02,
            0.88,
            0.78,
            0.66,
            0.53,
            0.43,
            0.33,
            0.21,
            0.08,
            -0.03,
            -0.14,
            -0.27,
            -0.39,
            -0.51,
            -0.62,
            -0.73,
            -0.84,
            -0.97,
            -1.1,
            -1.2,
            -1.32,
            -1.44,
            -1.53,
            -1.64,
            -1.77,
            -1.9,
            -1.98,
            -2.09,
            -2.21,
            -2.36,
            -2.48,
            -2.59,
            -2.73,
            -2.88,
            -2.99,
            -3.12,
            -3.25,
            -3.39,
            -3.51,
            -3.72,
            -3.92,
            -4.13,
            -4.36,
            -4.57,
            -4.75,
            -5.01,
            -5.21,
            -5.46,
            -5.68,
            -5.92,
            -6.14,
            -6.39,
            -6.63,
            -6.98,
            -7.21,
            -7.45,
            -7.71,
            -8.0,
            -8.35,
            -8.69,
            -9.02,
            -9.35,
            -9.69,
            -10.02,
            -10.36,
            -10.7,
            -11.03,
            -11.41,
            -11.76,
            -12.08,
            -12.52,
            -12.97,
            -13.44,
            -13.87,
            -14.31,
            -14.85,
            -15.42,
            -15.96,
            -16.49,
            -17.08,
            -17.51,
            -18.07,
            -18.16,
            -18.1,
            -17.99,
            -17.84,
            -17.69,
            -17.54,
            -17.4,
            -17.27,
            -17.12,
            -16.8,
            -16.51,
            -16.25,
            -16.07,
            -15.82,
            -15.68,
            -15.38,
            -15.06,
            -14.89,
            -14.65,
            -14.5,
            -14.18,
            -13.87,
            -13.61,
            -13.31,
            -13.03,
            -12.73,
            -12.42,
            -12.12,
            -11.82,
            -11.56,
            -11.27,
            -10.96,
            -10.65,
            -10.36,
            -10.06,
            -9.78,
            -9.48,
            -9.15,
            -9.04,
            -8.79,
            -8.63,
            -8.35,
            -8.09,
            -7.81,
            -7.52,
            -7.25,
            -6.99,
            -6.67,
            -6.44,
            -6.15,
            -6.02,
            -5.74,
            -5.44,
            -5.18,
            -4.88,
            -4.61,
            -4.51,
            -4.23,
            -3.99,
            -3.74,
            -3.48,
            -3.22,
            -2.97,
            -2.72,
            -2.5,
            -2.31,
            -2.11,
            -1.91,
            -1.79,
            -1.69,
            -1.6,
            -1.5,
            -1.39,
            -1.28,
            -1.07,
            -0.89,
            -0.74,
            -0.6,
            -0.46,
            -0.38,
            -0.22,
            -0.07,
            0.11,
            0.38,
            0.52,
            0.59,
            0.9,
            0.93,
            1.07,
            1.49,
            1.6,
            1.66,
            1.81,
            2.1,
            2.14,
            2.28,
            2.33,
            2.53,
            2.73,
            2.83,
            3.04,
            3.22,
            3.34,
            3.53,
            3.65,
            3.8,
            3.9,
            4.04,
            4.21,
            4.46,
            4.55,
            4.74,
            5.14,
            5.42,
            5.75,
            6.04,
            6.33,
            6.88,
            7.0,
            7.5,
            7.84,
            8.04,
            8.49,
            8.93,
            9.16,
            9.55,
            9.86,
            10.26,
            10.53,
            10.92,
            11.25,
            11.64,
            12.03,
            12.38,
            12.86,
            13.24,
            13.83,
            14.44,
            15.06,
            15.54,
            16.07,
            16.68,
            17.44,
            18.0,
            18.54,
            19.2,
            19.72,
            20.4,
            20.95,
            21.59,
            22.19,
            22.71,
            23.37,
            23.87,
            24.44,
            25.08,
            25.75,
            26.41,
            27.13,
            27.8,
            28.53,
            29.26,
            29.91,
            30.43,
            31.07,
            31.39,
            31.91,
            32.48,
            33.08,
            33.6,
            34.26,
            34.86,
            35.42,
            35.95,
            36.46,
            36.46,
            36.48,
            36.98,
            37.06,
            36.85,
            36.59,
            36.62,
            36.31,
            36.22,
            36.07,
            35.81,
            35.78,
            35.57,
            35.44,
            35.21,
            35.07,
            34.97,
            34.79,
            34.56,
            34.56,
            34.26,
            34.13,
            33.74,
            33.3,
            32.93,
            32.89,
            32.41,
            32.17,
            31.79,
            31.45,
            31.21,
            30.77,
            30.48,
            30.19,
            29.97,
            29.57,
            29.34,
            29.2,
            28.91,
            28.67,
            28.24,
            27.9,
            27.72,
            27.67,
            27.16,
            27.01,
            26.57,
            26.32,
            26.1,
            25.74,
            25.44,
            25.05,
            24.65,
            24.31,
            23.91,
            23.58,
            23.14,
            22.78,
            22.26,
            21.85,
            21.4,
            20.76,
            20.24,
            19.71,
            19.16,
            18.57,
            18.03,
            17.47,
            16.9,
            16.33,
            15.74,
            15.16,
            14.6,
            13.97,
            13.41,
            12.82,
            12.24,
            11.68,
            11.13,
            10.54,
            10.0,
            9.43,
            8.9,
            8.32,
            7.75,
            7.22,
            6.69,
            6.15,
            5.6,
            5.25,
            4.91,
            4.59,
            4.28,
            3.92,
            3.62,
            3.26,
            2.93,
            2.61,
            2.31,
            1.98,
            1.63,
            1.4,
            1.05,
            0.75,
            0.44,
            0.15,
            -0.15,
            -0.45,
            -0.77,
            -1.07,
            -1.35,
            -1.65,
            -1.97,
            -2.26,
            -2.55,
            -2.84,
            -3.13,
            -3.45,
            -3.75,
            -4.08,
            -4.39,
            -4.66,
            -4.99,
            -5.29,
            -5.62,
            -5.92,
            -6.21,
            -6.55,
            -6.88,
            -7.18,
            -7.52,
            -7.86,
            -8.19,
            -8.51,
            -8.84,
            -9.19,
            -9.7,
            -10.19,
            -10.55,
            -11.06,
            -11.58,
            -12.12,
            -12.67,
            -13.21,
            -13.77,
            -14.32,
            -14.93,
            -15.44,
            -16.03,
            -16.62,
            -17.18,
            -17.79,
            -18.36,
            -19.01,
            -19.65,
            -20.24,
            -20.92,
            -21.58,
            -22.24,
            -22.93,
            -23.61,
            -24.27,
            -24.96,
            -25.64,
            -26.34,
            -27.02,
            -27.68,
            -28.37,
            -28.93,
            -29.53,
            -30.18,
            -30.78,
            -31.39,
            -31.95,
            -32.56,
            -33.2,
            -33.77,
            -34.29,
            -34.82,
            -35.41,
            -35.7,
            -35.77,
            -36.34,
            -36.87,
            -37.37,
            -37.5,
            -37.37,
            -37.15,
            -36.84,
            -36.59,
            -36.22,
            -35.97,
            -35.69,
            -35.37,
            -35.03,
            -34.76,
            -34.45,
            -34.17,
            -33.85,
            -33.54,
            -33.22,
            -32.88,
            -32.6,
            -32.29,
            -31.92,
            -31.77,
            -31.45,
            -30.96,
            -30.7,
            -30.38,
            -30.06,
            -29.73,
            -29.43,
            -29.17,
            -28.86,
            -28.48,
            -28.2,
            -27.9,
            -27.59,
            -27.28,
            -26.97,
            -26.66,
            -26.37,
            -26.04,
            -25.72,
            -25.4,
            -25.1,
            -24.76,
            -24.45,
            -24.1,
            -23.77,
            -23.27,
            -22.72,
            -22.18,
            -21.64,
            -21.08,
            -20.53,
            -19.98,
            -19.42,
            -18.86,
            -18.28,
            -17.72,
            -17.16,
            -16.62,
            -16.04,
            -15.48,
            -14.93,
            -14.36,
            -13.82,
            -13.3,
            -12.77,
            -12.24,
            -11.68,
            -11.22,
            -10.66,
            -10.08,
            -9.5,
            -8.97,
            -8.38,
            -7.85,
            -7.35,
            -6.84,
            -6.34,
            -5.94,
            -5.54,
            -5.14,
            -4.64,
            -4.48,
            -4.02,
            -3.73,
            -3.37,
            -3.03,
            -2.83,
            -2.45,
            -2.06,
            -1.89,
            -1.5,
            -1.3,
            -1.02,
            -0.69,
            -0.58,
            -0.17,
            0.17,
            0.51,
            0.8,
            1.07,
            1.57,
            1.86,
            2.2,
            2.59,
            2.78,
            3.33,
            3.55,
            3.9,
            4.37,
            4.78,
            5.16,
            5.49,
            5.94,
            6.22,
            6.61,
            7.28,
            7.83,
            8.46,
            8.96,
            9.47,
            10.02,
            10.52,
            11.16,
            11.67,
            12.18,
            12.68,
            13.31,
            13.81,
            14.59,
            15.11,
            15.83,
            16.34,
            16.92,
            17.48,
            18.22,
            18.76,
            19.31,
            19.94,
            20.47,
            21.11,
            21.61,
            22.14,
            22.84,
            23.42,
            24.16,
            24.75,
            25.37,
            26.18,
            26.8,
            27.49,
            28.08,
            28.58,
            29.31,
            29.97,
            30.64,
            31.21,
            31.81,
            32.47,
            33.15,
            33.93,
            34.47,
            35.01,
            35.52,
            36.1,
            36.65,
            36.71,
            37.11,
            36.92,
            36.62,
            36.62,
            36.42,
            36.21,
            36.08,
            35.96,
            35.74,
            35.45,
            35.34,
            35.25,
            35.14,
            34.83,
            34.78,
            34.59,
            34.32,
            34.04,
            33.95,
            33.57,
            33.4,
            33.24,
            33.11,
            32.72,
            32.62,
            32.23,
            31.9,
            31.58,
            31.32,
            30.89,
            30.73,
            30.21,
            30.12,
            29.88,
            29.55,
            29.19,
            28.98,
            28.63,
            28.39,
            28.19,
            27.92,
            27.48,
            27.32,
            27.01,
            26.73,
            26.46,
            26.17,
            25.73,
            25.46,
            25.08,
            24.74,
            24.44,
            24.05,
            23.61,
            23.16,
            22.68,
            22.15,
            21.59,
            20.99,
            20.4,
            19.78,
            19.18,
            18.58,
            17.95,
            17.33,
            16.7,
            16.06,
            15.42,
            14.79,
            14.16,
            13.54,
            12.87,
            12.24,
            11.62,
            10.98,
            10.34,
            9.69,
            9.09,
            8.47,
            7.88,
            7.26,
            6.66,
            6.06,
            5.48,
            4.88,
            4.31,
            3.76,
            3.41,
            3.02,
            2.64,
            2.29,
            1.92,
            1.54,
            1.19,
            0.83,
            0.48,
            0.13,
            -0.23,
            -0.6,
            -0.95,
            -1.3,
            -1.64,
            -2.0,
            -2.35,
            -2.71,
            -3.07,
            -3.43,
            -3.77,
            -4.12,
            -4.51,
            -4.89,
            -5.26,
            -5.63,
            -5.97,
            -6.33,
            -6.92,
            -7.3,
            -7.86,
            -8.45,
            -9.06,
            -9.66,
            -10.12,
            -10.67,
            -11.29,
            -11.86,
            -12.51,
            -13.12,
            -13.78,
            -14.4,
            -15.05,
            -15.67,
            -16.3,
            -16.96,
            -17.6,
            -18.28,
            -18.93,
            -19.58,
            -20.26,
            -20.92,
            -21.59,
            -22.23,
            -22.73,
            -23.4,
            -24.08,
            -24.76,
            -25.43,
            -25.93,
            -26.6,
            -27.28,
            -27.79,
            -28.49,
            -29.0,
            -29.73,
            -30.4,
            -30.91,
            -31.63,
            -32.35,
            -33.12,
            -33.81,
            -34.32,
            -35.04,
            -35.78,
            -36.51,
            -36.8,
            -37.13,
            -37.16,
            -37.69,
            -37.9,
            -37.66,
            -37.38,
            -37.08,
            -36.8,
            -36.55,
            -36.21,
            -35.98,
            -35.73,
            -35.5,
            -35.26,
            -35.09,
            -34.86,
            -34.65,
            -34.46,
            -34.23,
            -33.99,
            -33.84,
            -33.63,
            -33.4,
            -33.23,
            -32.95,
            -32.76,
            -32.51,
            -32.24,
            -31.96,
            -31.68,
            -31.43,
            -31.15,
            -30.9,
            -30.59,
            -30.44,
            -30.16,
            -29.9,
