{
    "Name": "Galeota et al. 1996, CB2",
    "Type": "Rectangular",
    "fpc": 80.0,
    "fyt": 430.0,
    "fsut": 0.0,
    "fyl": 430.0,
    "fsul": 0.0,
    "Width": 250.0,
    "Depth": 250.0,
    "L_Inflection": 1140.0,
    "L_Measured": 1140.0,
    "TestConfiguration": "Double Ended",
    "AxLoad": 1000.0,
    "P_Delta": "Shear provided",
    "dlb": 20.0,
    "dlb_c": 20.0,
    "nlb": 12.0,
    "cc_per": 30.0,
    "nib_per": 2.0,
    "cc_par": 30.0,
    "nib_par": 2.0,
    "SubType": "RI: Rectangular and interlocking ties",
    "nsl": 4.0,
    "dtb_rcs": 8.0,
    "s_rcs": 50.0,
    "FailureType": "Flexure",
    "data": {
        "disp": [
            0.05,
            0.09,
            0.16,
            0.22,
            0.31,
            0.38,
            0.46,
            0.53,
            0.6,
            0.68,
            0.76,
            0.84,
            0.89,
            0.99,
            1.05,
            1.13,
            1.22,
            1.3,
            1.38,
            1.45,
            1.54,
            1.61,
            1.68,
            1.78,
            1.85,
            1.93,
            2.01,
            2.1,
            2.18,
            2.27,
            2.36,
            2.45,
            2.57,
            2.65,
            2.74,
            2.83,
            2.93,
            3.03,
            3.13,
            3.24,
            3.34,
            3.44,
            3.54,
            3.69,
            3.81,
            3.9,
            4.03,
            4.17,
            4.31,
            4.42,
            4.55,
            4.7,
            4.85,
            4.96,
            5.1,
            5.26,
            5.4,
            5.51,
            5.65,
            5.79,
            5.92,
            6.1,
            6.3,
            6.44,
            6.6,
            6.72,
            6.88,
            7.08,
            7.26,
            7.46,
            7.62,
            7.79,
            7.99,
            8.17,
            8.37,
            8.57,
            8.77,
            8.99,
            9.17,
            9.35,
            9.67,
            9.86,
            10.0,
            10.23,
            10.41,
            10.61,
            10.84,
            10.99,
            11.22,
            11.44,
            11.7,
            11.89,
            12.16,
            12.41,
            12.6,
            12.89,
            13.12,
            13.31,
            13.53,
            13.77,
            13.98,
            14.18,
            14.45,
            14.71,
            14.93,
            15.18,
            15.5,
            15.74,
            15.95,
            16.24,
            16.48,
            16.75,
            17.04,
            17.27,
            17.66,
            17.95,
            18.51,
            19.05,
            19.6,
            20.13,
            20.16,
            20.23,
            20.24,
            20.22,
            20.09,
            19.91,
            19.79,
            19.66,
            19.54,
            19.45,
            19.29,
            19.2,
            19.02,
            18.86,
            18.73,
            18.6,
            18.44,
            18.3,
            18.15,
            18.04,
            17.87,
            17.72,
            17.6,
            17.45,
            17.32,
            17.18,
            17.02,
            16.85,
            16.7,
            16.52,
            16.36,
            16.2,
            16.03,
            15.85,
            15.69,
            15.52,
            15.36,
            15.2,
            15.0,
            14.86,
            14.68,
            14.52,
            14.35,
            14.19,
            14.02,
            13.86,
            13.68,
            13.53,
            13.34,
            13.19,
            13.01,
            12.86,
            12.7,
            12.53,
            12.36,
            12.2,
            12.02,
            11.86,
            11.7,
            11.55,
            11.37,
            11.19,
            11.03,
            10.89,
            10.7,
            10.58,
            10.37,
            10.2,
            10.02,
            9.89,
            9.68,
            9.49,
            9.38,
            9.18,
            9.06,
            8.88,
            8.68,
            8.49,
            8.33,
            8.14,
            7.95,
            7.77,
            7.57,
            7.42,
            7.24,
            7.07,
            6.94,
            6.77,
            6.56,
            6.31,
            6.11,
            5.93,
            5.77,
            5.61,
            5.47,
            5.29,
            5.15,
            4.98,
            4.86,
            4.74,
            4.59,
            4.43,
            4.32,
            4.11,
            3.92,
            3.76,
            3.66,
            3.54,
            3.4,
            -2.5,
            -10.0,
            -18.51,
            -19.03,
            -19.23,
            -19.49,
            -19.84,
            -20.12,
            -20.43,
            -20.84,
            -21.18,
            -21.56,
            -21.89,
            -22.22,
            -22.58,
            -23.09,
            -23.52,
            -23.98,
            -24.43,
            -24.94,
            -25.49,
            -26.01,
            -26.56,
            -27.11,
            -27.61,
            -28.11,
            -28.66,
            -29.16,
            -29.69,
            -30.24,
            -30.78,
            -31.28,
            -31.79,
            -32.3,
            -32.78,
            -32.87,
            -32.87,
            -32.7,
            -32.54,
            -32.38,
            -32.23,
            -31.96,
            -31.81,
            -31.64,
            -31.47,
            -31.22,
            -31.06,
            -30.8,
            -30.55,
            -30.39,
            -30.14,
            -29.97,
            -29.8,
            -29.64,
            -29.39,
            -29.21,
            -28.97,
            -28.8,
            -28.54,
            -28.37,
            -28.12,
            -27.95,
            -27.76,
            -27.57,
            -27.37,
            -27.18,
            -26.98,
            -26.66,
            -26.48,
            -26.29,
            -26.09,
            -25.8,
            -25.61,
            -25.31,
            -25.02,
            -24.82,
            -24.52,
            -24.23,
            -24.04,
            -23.84,
            -23.55,
            -23.25,
            -23.05,
            -22.86,
            -22.66,
            -22.47,
            -22.17,
            -21.97,
            -21.68,
            -21.38,
            -21.18,
            -20.98,
            -20.68,
            -20.38,
            -20.05,
            -19.71,
            -19.48,
            -19.13,
            -18.78,
            -18.44,
            -18.08,
            -17.86,
            -17.52,
            -17.29,
            -16.96,
            -16.75,
            -16.54,
            -16.32,
            -16.0,
            -15.79,
            -15.46,
            -15.25,
            -14.92,
            -14.59,
            -14.38,
            -14.05,
            -13.73,
            -13.41,
            -13.1,
            -12.78,
            -12.46,
            -12.15,
            -11.83,
            -11.52,
            -11.32,
            -11.01,
            -10.8,
            -10.49,
            -10.18,
            -9.98,
            -9.67,
            -9.47,
            -9.16,
            -8.95,
            -8.65,
            -8.44,
            -8.14,
            -7.94,
            -7.64,
            -7.46,
            -7.12,
            -6.91,
            -6.74,
            -6.54,
            -6.32,
            -6.12,
            -5.93,
            -5.67,
            -5.37,
            -5.16,
            -4.91,
            -4.72,
            -4.46,
            -4.25,
            -4.0,
            -3.82,
            -3.53,
            -3.35,
            -3.07,
            -2.79,
            -2.52,
            -2.22,
            -2.03,
            -1.73,
            -1.52,
            -1.2,
            -0.96,
            -0.7,
            -0.43,
            -0.16,
            0.11,
            0.38,
            0.64,
            0.93,
            1.19,
            1.46,
            1.76,
            2.04,
            2.33,
            2.62,
            2.91,
            3.21,
            3.5,
            3.79,
            4.08,
            4.37,
            4.63,
            4.93,
            5.22,
            5.37,
            5.68,
            5.98,
            6.28,
            6.58,
            6.88,
            7.19,
            7.49,
            7.79,
            8.11,
            8.42,
            8.72,
            9.03,
            9.34,
            9.65,
            9.97,
            10.27,
            10.58,
            10.89,
            11.2,
            11.52,
            11.68,
            11.99,
            12.29,
            12.61,
            12.92,
            13.25,
            13.55,
            13.88,
            14.2,
            14.5,
            14.77,
            15.0,
            15.37,
            15.73,
            16.09,
            16.47,
            16.7,
            17.07,
            17.44,
            17.82,
            18.18,
            18.54,
            19.0,
            19.45,
            19.99,
            20.43,
            20.99,
            21.55,
            22.13,
            22.71,
            23.31,
            23.86,
            24.21,
            24.71,
            24.97,
            25.41,
            25.96,
            26.49,
            27.02,
            27.54,
            28.05,
            28.58,
            29.13,
            29.68,
            30.24,
            30.79,
            31.33,
            31.83,
            32.17,
            32.67,
            33.17,
            33.67,
            34.18,
            34.73,
            35.26,
            35.8,
            36.34,
            36.87,
            37.37,
            37.88,
            38.39,
            38.92,
            39.44,
            39.98,
            40.49,
            41.02,
            41.54,
            42.05,
            42.58,
            43.09,
            43.17,
            43.31,
            43.1,
            42.85,
            42.61,
            42.34,
            42.11,
            41.83,
            41.68,
            41.37,
            41.2,
            41.06,
            40.9,
            40.59,
            40.28,
            40.02,
            39.73,
            39.56,
            39.26,
            39.12,
            38.82,
            38.49,
            38.37,
            38.07,
            37.9,
            37.61,
            37.3,
            37.01,
            36.72,
            36.4,
            36.25,
            35.97,
            35.66,
            35.35,
            35.06,
            34.91,
            34.6,
            34.3,
            34.01,
            33.71,
            33.41,
            33.11,
            32.8,
            32.49,
            32.21,
            31.9,
            31.59,
            31.29,
            30.98,
            30.69,
            30.39,
            30.08,
            29.79,
            29.49,
            29.2,
            28.9,
            28.62,
            28.32,
            28.03,
            27.73,
            27.45,
            27.17,
            26.87,
            26.6,
            26.31,
            26.04,
            25.76,
            25.48,
            25.15,
            24.85,
            24.54,
            24.2,
            23.96,
            23.61,
            23.36,
            22.96,
            22.7,
            22.47,
            22.15,
            21.85,
            21.55,
            21.28,
            20.95,
            20.69,
            20.39,
            20.07,
            19.74,
            19.39,
            19.03,
            18.66,
            18.27,
            17.9,
            17.51,
            17.11,
            16.73,
            16.35,
            15.94,
            15.54,
            15.12,
            14.7,
            14.27,
            13.83,
            13.39,
            12.95,
            12.51,
            12.05,
            11.6,
            11.15,
            10.7,
            10.25,
            9.8,
            9.35,
            8.66,
            7.97,
            7.5,
            6.8,
            6.33,
            5.63,
            5.15,
            4.44,
            3.73,
            3.01,
            2.3,
            1.84,
            1.13,
            0.66,
            -0.04,
            -0.72,
            -1.18,
            -1.63,
            -2.3,
            -2.74,
            -3.18,
            -3.62,
            -4.06,
            -4.49,
            -4.92,
            -5.34,
            -5.77,
            -6.19,
            -6.62,
            -7.04,
            -7.46,
            -7.88,
            -8.3,
            -8.72,
            -9.12,
            -9.53,
            -10.13,
            -10.53,
            -10.93,
            -11.34,
            -11.74,
            -12.35,
            -12.75,
            -13.16,
            -13.57,
            -13.98,
            -14.39,
            -14.81,
            -15.22,
            -15.64,
            -16.06,
            -16.48,
            -16.9,
            -17.32,
            -17.97,
            -18.61,
            -19.27,
            -19.92,
            -20.36,
            -21.03,
            -21.47,
            -22.15,
            -22.83,
            -23.51,
            -24.21,
            -24.9,
            -25.6,
            -26.3,
            -27.02,
            -27.74,
            -28.48,
            -29.2,
            -29.71,
            -30.22,
            -30.97,
            -31.5,
            -32.02,
            -32.57,
            -33.14,
            -33.73,
            -34.29,
            -34.85,
            -35.42,
            -36.01,
            -36.59,
            -37.18,
            -37.78,
            -38.34,
            -39.18,
            -39.74,
            -40.25,
            -40.95,
            -41.45,
            -42.14,
            -42.84,
            -43.52,
            -44.16,
            -44.81,
            -45.46,
            -46.1,
            -46.75,
            -47.39,
            -48.04,
            -48.69,
            -49.34,
            -49.99,
            -50.64,
            -51.28,
            -51.88,
            -52.44,
            -52.99,
            -53.57,
            -54.1,
            -54.63,
            -55.27,
            -55.92,
            -56.54,
            -57.19,
            -57.8,
            -58.32,
            -58.96,
            -59.61,
            -60.25,
            -60.89,
            -61.51,
            -62.15,
            -62.71,
            -63.23,
            -63.78,
            -64.28,
            -64.84,
            -65.44,
            -65.99,
            -66.53,
            -67.04,
            -67.55,
            -68.05,
            -68.67,
            -69.18,
            -69.47,
            -69.65,
            -70.03,
            -70.56,
            -70.93,
            -71.05,
            -71.03,
            -70.86,
            -70.64,
            -70.35,
            -70.08,
            -69.79,
            -69.54,
            -69.36,
            -69.12,
            -68.88,
            -68.64,
            -68.4,
            -68.22,
            -67.92,
            -67.67,
            -67.37,
            -67.14,
            -66.86,
            -66.55,
            -66.27,
            -66.02,
            -65.77,
            -65.51,
            -65.28,
            -65.03,
            -64.79,
            -64.54,
            -64.29,
            -64.05,
            -63.78,
            -63.54,
            -63.3,
            -62.96,
            -62.63,
            -62.23,
            -62.03,
            -61.63,
            -61.24,
            -60.8,
            -60.37,
            -59.95,
            -59.52,
            -59.09,
            -58.87,
            -58.44,
            -58.02,
            -57.6,
            -57.22,
            -56.82,
            -56.4,
            -55.99,
            -55.57,
            -55.16,
            -54.75,
            -54.36,
            -53.93,
            -53.53,
            -53.34,
            -52.91,
            -52.48,
            -52.06,
            -51.65,
            -51.23,
            -50.81,
            -50.39,
            -49.94,
            -49.53,
            -49.11,
            -48.69,
            -48.27,
            -47.84,
            -47.45,
            -47.05,
            -46.65,
            -46.18,
            -45.78,
            -45.42,
            -45.05,
            -44.64,
            -44.26,
            -43.76,
            -43.36,
            -43.0,
            -42.68,
            -42.38,
            -41.89,
            -41.47,
            -41.01,
            -40.55,
            -39.85,
            -39.38,
            -38.89,
            -38.44,
            -37.95,
            -37.46,
            -36.96,
            -36.45,
            -35.88,
            -35.28,
            -34.59,
            -33.93,
            -33.24,
            -32.53,
            -31.81,
            -31.06,
            -30.31,
            -29.55,
            -28.79,
            -28.02,
            -27.25,
            -26.5,
            -25.72,
            -24.94,
            -24.15,
            -23.36,
            -22.56,
            -21.77,
            -20.98,
            -20.17,
            -19.36,
            -18.55,
            -17.76,
            -16.97,
            -16.17,
            -15.38,
            -14.58,
            -13.78,
            -12.99,
            -12.2,
            -11.42,
            -10.64,
            -9.85,
            -9.08,
            -8.31,
            -7.54,
            -6.77,
            -6.02,
            -5.26,
            -4.51,
            -3.76,
            -3.01,
            -2.26,
            -1.53,
            -0.8,
            0.29,
            1.03,
            1.76,
            2.49,
            3.2,
            3.92,
            4.64,
            5.36,
            6.06,
            6.78,
            7.49,
            8.21,
            8.92,
            9.63,
            10.34,
            11.07,
            11.78,
            12.5,
            13.23,
            13.96,
            14.68,
            15.42,
            16.17,
            16.92,
            17.66,
            18.43,
            19.22,
            19.92,
            20.66,
            21.41,
            22.18,
            22.94,
            23.68,
            24.44,
            25.18,
            25.94,
            26.71,
            27.47,
            28.25,
            29.04,
            29.81,
            30.58,
            31.35,
            32.16,
            32.96,
            33.75,
            34.57,
            35.38,
            36.19,
            37.01,
            37.79,
            38.49,
            39.15,
            39.73,
            40.26,
            40.86,
            41.6,
            42.13,
            42.65,
            43.06,
            43.62,
            43.72,
            43.49,
            43.27,
            42.74,
            42.41,
            42.07,
            41.75,
            41.44,
            41.13,
            40.79,
            40.46,
            40.15,
            39.82,
            39.49,
            39.15,
            38.83,
            38.5,
            38.17,
            37.87,
            37.52,
            37.2,
            36.88,
            36.53,
            36.22,
            35.89,
            35.56,
            35.23,
            34.9,
            34.52,
            34.16,
            33.78,
            33.37,
            32.97,
            32.57,
            32.15,
            31.72,
            31.33,
            30.94,
            30.53,
            30.14,
            29.74,
            29.36,
            28.98,
