{
    "Name": "Galeota et al. 1996, CA1",
    "Type": "Rectangular",
    "fpc": 80.0,
    "fyt": 430.0,
    "fsut": 0.0,
    "fyl": 430.0,
    "fsul": 0.0,
    "Width": 250.0,
    "Depth": 250.0,
    "L_Inflection": 1140.0,
    "L_Measured": 1140.0,
    "TestConfiguration": "Double Ended",
    "AxLoad": 1000.0,
    "P_Delta": "Shear provided",
    "dlb": 10.0,
    "dlb_c": 10.0,
    "nlb": 12.0,
    "cc_per": 30.0,
    "nib_per": 2.0,
    "cc_par": 30.0,
    "nib_par": 2.0,
    "SubType": "RI: Rectangular and interlocking ties",
    "nsl": 4.0,
    "dtb_rcs": 8.0,
    "s_rcs": 50.0,
    "FailureType": "Flexure",
    "data": {
        "disp": [
            0.24,
            0.42,
            0.57,
            0.65,
            0.75,
            0.93,
            1.13,
            1.21,
            1.31,
            1.55,
            1.73,
            1.78,
            2.02,
            2.28,
            2.37,
            2.47,
            2.8,
            2.89,
            2.99,
            3.26,
            3.5,
            3.62,
            3.76,
            4.04,
            4.19,
            4.34,
            4.77,
            4.89,
            5.18,
            5.5,
            5.65,
            6.11,
            6.23,
            6.54,
            6.87,
            7.15,
            7.5,
            7.83,
            8.15,
            8.5,
            8.8,
            9.140001,
            9.3,
            9.810001,
            9.979999,
            10.36,
            10.89,
            11.19,
            11.4,
            12.06,
            12.23,
            12.73,
            13.05,
            13.23,
            13.88,
            14.03,
            14.41,
            14.96,
            15.49,
            15.91,
            17.27,
            17.57,
            17.82,
            17.48,
            17.02,
            16.83,
            16.41,
            16.19,
            15.81,
            15.61,
            15.17,
            14.97,
            14.54,
            14.37,
            13.95,
            13.72,
            13.26,
            13.05,
            12.6,
            12.43,
            11.98,
            11.81,
            11.37,
            11.12,
            10.75,
            10.51,
            10.11,
            9.850001,
            9.47,
            9.32,
            8.87,
            8.71,
            8.310001,
            8.060001,
            7.73,
            7.52,
            7.14,
            7.02,
            6.72,
            6.47,
            6.15,
            5.97,
            5.64,
            5.32,
            5.22,
            4.7,
            4.7,
            4.31,
            4.17,
            3.98,
            3.63,
            3.54,
            3.23,
            2.98,
            2.95,
            2.63,
            2.38,
            2.22,
            1.85,
            1.71,
            1.52,
            1.09,
            0.91,
            0.59,
            0.28,
            0.12,
            -0.35,
            -0.5,
            -0.63,
            -0.93,
            -1.13,
            -1.24,
            -1.67,
            -1.84,
            -1.94,
            -2.3,
            -2.47,
            -2.56,
            -2.86,
            -3.02,
            -3.3,
            -3.63,
            -3.76,
            -4.28,
            -4.43,
            -4.75,
            -5.01,
            -5.51,
            -5.68,
            -6.01,
            -6.21,
            -6.55,
            -6.74,
            -7.28,
            -7.47,
            -8.020001,
            -8.21,
            -8.83,
            -9.25,
            -9.46,
            -10.06,
            -10.22,
            -10.8,
            -11.08,
            -11.43,
            -11.81,
            -12.02,
            -12.59,
            -12.82,
            -13.25,
            -13.85,
            -14.05,
            -14.51,
            -15.19,
            -15.68,
            -15.87,
            -16.54,
            -17.18,
            -17.41,
            -17.96,
            -18.75,
            -19.43,
            -19.7,
            -19.69,
            -19.23,
            -18.89,
            -18.75,
            -18.28,
            -18.11,
            -17.8,
            -17.6,
            -17.25,
            -17.08,
            -16.56,
            -16.37,
            -15.88,
            -15.68,
            -15.14,
            -14.98,
            -14.45,
            -14.23,
            -13.73,
            -13.53,
            -12.96,
            -12.76,
            -12.22,
            -12.03,
            -11.47,
            -11.28,
            -10.72,
            -10.55,
            -10.02,
            -9.850001,
            -9.32,
            -9.08,
            -8.560001,
            -8.41,
            -7.85,
            -7.64,
            -7.1,
            -6.91,
            -6.37,
            -6.2,
            -5.66,
            -5.44,
            -5.05,
            -4.86,
            -4.5,
            -4.21,
            -4.05,
            -3.56,
            -3.39,
            -3.12,
            -2.8,
            -2.64,
            -2.19,
            -2.04,
            -1.76,
            -1.54,
            -1.37,
            -1.02,
            -0.94,
            -0.69,
            -0.45,
            -0.3,
            0.1,
            0.25,
            0.55,
            0.77,
            0.82,
            1.13,
            1.32,
            1.51,
            1.87,
            1.96,
            2.25,
            2.49,
            2.66,
            3.03,
            3.2,
            3.49,
            3.79,
            3.97,
            4.47,
            4.65,
            5.0,
            5.17,
            5.52,
            5.76,
            5.96,
            6.41,
            6.81,
            6.96,
            7.56,
            7.78,
            8.37,
            8.5,
            9.100001,
            9.359999,
            9.939999,
            10.07,
            10.75,
            10.94,
            11.52,
            11.78,
            12.37,
            12.56,
            13.18,
            13.37,
            13.77,
            14.46,
            14.63,
            15.32,
            15.52,
            15.93,
            16.58,
            17.04,
            17.28,
            17.96,
            18.7,
            19.23,
            19.99,
            20.52,
            21.07,
            21.85,
            22.4,
            22.96,
            23.72,
            24.3,
            24.83,
            25.18,
            25.47,
            26.01,
            26.71,
            27.26,
            27.86,
            28.38,
            28.91,
            29.47,
            30.05,
            30.66,
            30.93,
            31.29,
            32.04,
            32.6,
            33.18,
            33.72,
            34.01,
            34.27,
            34.78,
            35.38,
            35.89,
            36.52,
            37.06,
            37.31,
            37.86,
            38.4,
            38.49,
            37.95,
            37.69,
            37.39,
            37.15,
            36.86,
            36.59,
            36.29,
            36.0,
            35.75,
            35.45,
            35.16,
            34.88,
            34.29,
            34.02,
            33.4,
            33.13,
            32.53,
            32.25,
            31.66,
            31.38,
            30.82,
            30.5,
            29.98,
            29.69,
            29.2,
            28.96,
            28.49,
            28.25,
            27.75,
            27.43,
            27.15,
            26.58,
            26.27,
            26.02,
            25.41,
            25.16,
            24.61,
            24.32,
            24.08,
            23.46,
            23.3,
            22.92,
            22.38,
            22.11,
            21.82,
            21.25,
            20.67,
            20.36,
            19.77,
            19.25,
            19.01,
            18.56,
            18.05,
            17.47,
            16.95,
            16.77,
            16.41,
            15.73,
            15.1,
            14.78,
            14.48,
            13.83,
            13.19,
            12.54,
            12.21,
            11.63,
            10.95,
            10.65,
            10.31,
            9.649999,
            9.04,
            8.74,
            8.43,
            7.77,
            7.18,
            6.88,
            6.29,
            5.95,
            5.69,
            5.06,
            4.75,
            4.46,
            3.87,
            3.6,
            3.31,
            2.73,
            2.43,
            2.16,
            1.52,
            1.26,
            0.96,
            0.47,
            0.17,
            -0.3,
            -0.62,
            -1.13,
            -1.34,
            -1.87,
            -2.09,
            -2.64,
            -2.85,
            -3.36,
            -3.6,
            -4.11,
            -4.4,
            -4.83,
            -5.1,
            -5.58,
            -5.85,
            -6.35,
            -6.57,
            -7.1,
            -7.42,
            -8.07,
            -8.3,
            -8.84,
            -9.13,
            -9.34,
            -9.899999,
            -10.18,
            -10.72,
            -11.02,
            -11.25,
            -11.78,
            -12.05,
            -12.36,
            -12.96,
            -13.52,
            -13.79,
            -14.4,
            -14.96,
            -15.28,
            -15.84,
            -16.47,
            -16.76,
            -17.36,
            -17.98,
            -18.62,
            -18.96,
            -19.58,
            -20.24,
            -20.88,
            -21.58,
            -22.27,
            -22.87,
            -23.59,
            -24.3,
            -25.01,
            -25.8,
            -26.52,
            -27.35,
            -27.71,
            -28.46,
            -29.27,
            -30.0,
            -30.73,
            -31.58,
            -31.92,
            -32.68,
            -33.44,
            -34.27,
            -34.66,
            -35.1,
            -35.84,
            -36.66,
            -37.45,
            -37.83,
            -38.63,
            -39.43,
            -39.83,
            -40.2,
            -41.07,
            -41.87,
            -42.26,
            -42.69,
            -43.27,
            -43.45,
            -42.75,
            -42.52,
            -42.25,
            -41.86,
            -41.66,
            -41.23,
            -40.96,
            -40.45,
            -40.23,
            -39.92,
            -39.44,
            -39.16,
            -38.66,
            -38.37,
            -37.98,
            -37.2,
            -36.95,
            -36.4,
            -36.1,
            -35.76,
            -35.23,
            -34.97,
            -34.64,
            -34.03,
            -33.41,
            -33.19,
            -32.65,
            -32.33,
            -32.01,
            -31.41,
            -31.08,
            -30.81,
            -30.28,
            -29.96,
            -29.67,
            -28.99,
            -28.77,
            -28.4,
            -27.85,
            -27.22,
            -26.98,
            -26.22,
            -25.67,
            -25.36,
            -24.76,
            -24.03,
            -23.78,
            -23.11,
            -22.44,
            -22.2,
            -21.85,
            -21.18,
            -20.52,
            -19.92,
            -19.52,
            -18.76,
            -18.04,
            -17.43,
            -16.73,
            -16.43,
            -15.97,
            -15.38,
            -14.73,
            -13.98,
            -13.7,
            -12.97,
            -12.07,
            -11.75,
            -11.37,
            -10.64,
            -9.91,
            -9.2,
            -8.609999,
            -8.350001,
            -7.84,
            -7.34,
            -7.13,
            -6.81,
            -6.2,
            -5.99,
            -5.7,
            -5.15,
            -4.79,
            -4.47,
            -3.7,
            -3.37,
            -2.84,
            -2.53,
            -2.26,
            -1.85,
            -1.67,
            -1.01,
            -0.93,
            -0.43,
            -0.28,
            0.11,
            0.37,
            0.69,
            1.21,
            1.42,
            1.92,
            2.07,
            2.72,
            3.17,
            3.4,
            3.89,
            4.24,
            4.77,
            5.18,
            5.69,
            6.09,
            6.64,
            6.9,
            7.21,
            7.8,
            8.12,
            8.42,
            9.109999,
            9.41,
            9.689999,
            10.48,
            11.02,
            11.38,
            11.94,
            12.49,
            12.76,
            13.52,
            14.29,
            14.65,
            14.91,
            15.64,
            16.29,
            16.92,
            17.26,
            17.93,
            18.58,
            19.34,
            20.1,
            20.36,
            21.08,
            21.82,
            22.58,
            23.18,
            23.84,
            24.59,
            24.94,
            25.67,
            26.4,
            27.08,
            27.89,
            28.57,
            29.33,
            30.02,
            30.77,
            31.61,
            32.3,
            33.13,
            33.83,
            34.54,
            35.26,
            36.11,
            36.85,
            37.15,
            37.56,
            38.29,
            39.14,
            39.21,
            38.67,
            38.37,
            38.02,
            37.75,
            37.48,
            37.16,
            36.91,
            36.61,
            36.28,
            36.02,
            35.72,
            35.46,
            34.87,
            34.58,
            34.01,
            33.71,
            33.16,
            32.82,
            32.31,
            32.02,
            31.49,
            31.12,
            30.61,
            30.32,
            29.62,
            29.35,
            28.75,
            28.46,
            27.85,
            27.62,
            27.34,
            26.83,
            26.63,
            26.32,
            25.69,
            25.46,
            25.12,
            24.59,
            24.26,
            24.03,
            23.44,
            22.96,
            22.75,
            22.25,
            21.74,
            21.52,
            21.17,
            20.61,
            20.09,
            19.79,
            19.46,
            18.71,
            17.98,
            17.61,
            16.87,
            16.12,
            15.35,
            15.0,
            14.28,
            13.51,
            13.14,
            12.76,
            12.0,
            11.24,
            10.86,
            10.49,
            9.729999,
            9.01,
            8.63,
            7.88,
            7.14,
            6.78,
            6.41,
            5.7,
            5.35,
            4.99,
            4.27,
            3.55,
            3.23,
            2.48,
            2.02,
            1.68,
            0.89,
            0.53,
            -0.13,
            -0.48,
            -1.1,
            -1.37,
            -1.7,
            -1.99,
            -2.28,
            -2.93,
            -3.27,
            -3.89,
            -4.18,
            -4.87,
            -5.24,
            -5.84,
            -6.19,
            -6.81,
            -7.14,
            -7.49,
            -8.17,
            -8.45,
            -8.78,
            -9.5,
            -9.83,
            -10.17,
            -10.87,
            -11.57,
            -11.88,
            -12.6,
            -13.3,
            -13.7,
            -14.43,
            -15.15,
            -15.86,
            -16.25,
            -17.0,
            -17.73,
            -18.47,
            -18.83,
            -19.21,
            -19.97,
            -20.74,
            -21.46,
            -22.24,
            -22.61,
            -23.39,
            -24.19,
            -24.96,
            -25.73,
            -26.51,
            -27.32,
            -28.1,
            -28.92,
            -29.77,
            -30.12,
            -30.51,
            -31.37,
            -32.12,
            -32.47,
            -33.29,
            -34.13,
            -34.94,
            -35.81,
            -36.34,
            -37.32,
            -38.14,
            -39.01,
            -39.87,
            -40.74,
            -41.63,
            -42.04,
            -42.91,
            -43.51,
            -43.45,
            -42.87,
            -42.59,
            -42.28,
            -42.01,
            -41.72,
            -41.4,
            -40.81,
            -40.49,
            -39.89,
            -39.59,
            -38.97,
            -38.59,
            -37.9,
            -37.6,
            -36.92,
            -36.53,
            -36.21,
            -35.55,
            -35.19,
            -34.81,
            -34.11,
            -33.77,
            -33.45,
            -32.71,
            -32.36,
            -32.01,
            -31.33,
            -30.97,
            -30.61,
            -29.89,
            -29.51,
            -29.17,
            -28.45,
            -28.09,
            -27.72,
            -27.0,
            -26.64,
            -26.26,
            -25.5,
            -25.1,
            -24.76,
            -23.97,
            -23.21,
            -22.83,
            -22.07,
            -21.26,
            -20.88,
            -20.08,
            -19.31,
            -18.94,
            -18.51,
            -17.72,
            -16.88,
            -16.51,
            -16.14,
            -15.3,
            -14.5,
            -14.13,
            -13.74,
            -12.9,
            -12.39,
            -11.48,
            -11.07,
            -10.14,
            -9.47,
            -8.83,
            -8.23,
            -8.12,
            -7.51,
            -6.77,
            -6.43,
            -5.69,
            -5.32,
            -4.97,
            -4.26,
            -3.94,
            -3.59,
            -3.02,
            -2.68,
            -2.51,
            -1.8,
            -1.68,
            -1.05,
            -0.82,
            -0.33,
            -0.03,
            0.23,
            0.92,
            1.14,
            1.74,
            2.0,
            2.37,
            2.98,
            3.3,
            3.59,
            4.26,
            4.63,
            5.26,
            5.59,
            6.33,
            6.74,
            7.43,
            7.78,
            8.600001,
            8.979999,
            9.3,
            10.13,
            10.47,
            10.88,
            11.63,
            12.5,
            12.84,
            13.68,
            14.4,
            14.89,
            15.27,
            16.08,
            16.86,
            17.69,
            18.11,
            18.94,
            19.79,
            20.35,
            20.86,
            21.24,
            22.05,
            22.88,
            23.38,
            24.24,
            25.05,
            25.94,
            26.36,
            27.2,
            28.02,
            28.87,
            29.78,
            30.66,
            31.51,
            32.37,
            32.88,
            33.72,
            34.56,
            35.5,
            36.32,
            36.84,
            37.71,
            38.66,
            39.57,
            39.5,
            39.03,
            38.61,
            38.1,
            37.65,
            37.16,
            36.73,
            36.24,
            35.78,
            35.3,
            34.84,
            34.41,
            33.97,
            33.51,
            33.15,
            32.76,
            32.32,
            31.79,
            31.28,
            30.85,
            30.38,
            29.85,
            29.38,
            28.97,
            28.57,
            27.94,
            27.67,
