{
    "Name": "Galeota et al. 1996, CA4",
    "Type": "Rectangular",
    "fpc": 80.0,
    "fyt": 430.0,
    "fsut": 0.0,
    "fyl": 430.0,
    "fsul": 0.0,
    "Width": 250.0,
    "Depth": 250.0,
    "L_Inflection": 1140.0,
    "L_Measured": 1140.0,
    "TestConfiguration": "Double Ended",
    "AxLoad": 1500.0,
    "P_Delta": "Shear provided",
    "dlb": 10.0,
    "dlb_c": 10.0,
    "nlb": 12.0,
    "cc_per": 30.0,
    "nib_per": 2.0,
    "cc_par": 30.0,
    "nib_par": 2.0,
    "SubType": "RI: Rectangular and interlocking ties",
    "nsl": 4.0,
    "dtb_rcs": 8.0,
    "s_rcs": 50.0,
    "FailureType": "Flexure",
    "data": {
        "disp": [
            0.05,
            0.12,
            0.19,
            0.27,
            0.35,
            0.43,
            0.53,
            0.6,
            0.69,
            0.77,
            0.85,
            0.93,
            1.0,
            1.1,
            1.18,
            1.25,
            1.36,
            1.44,
            1.52,
            1.61,
            1.7,
            1.79,
            1.88,
            1.98,
            2.06,
            2.15,
            2.23,
            2.33,
            2.42,
            2.53,
            2.63,
            2.74,
            2.82,
            2.92,
            3.02,
            3.11,
            3.23,
            3.34,
            3.44,
            3.55,
            3.65,
            3.79,
            3.89,
            4.01,
            4.14,
            4.24,
            4.36,
            4.47,
            4.58,
            4.7,
            4.84,
            4.95,
            5.09,
            5.23,
            5.37,
            5.54,
            5.68,
            5.92,
            6.11,
            6.28,
            6.45,
            6.63,
            6.79,
            6.98,
            7.16,
            7.38,
            7.6,
            7.78,
            7.99,
            8.25,
            8.46,
            8.71,
            8.96,
            9.31,
            9.59,
            9.9,
            10.13,
            10.47,
            10.85,
            11.09,
            11.49,
            11.87,
            12.23,
            12.63,
            13.04,
            13.45,
            13.98,
            14.37,
            14.89,
            15.42,
            15.95,
            16.45,
            17.67,
            17.89,
            18.01,
            18.12,
            18.03,
            17.89,
            17.78,
            17.64,
            17.49,
            17.3,
            17.14,
            16.96,
            16.73,
            16.49,
            16.32,
            16.12,
            15.98,
            15.76,
            15.55,
            15.33,
            15.12,
            14.9,
            14.68,
            14.47,
            14.25,
            13.96,
            13.74,
            13.53,
            13.31,
            13.17,
            13.02,
            12.73,
            12.51,
            12.29,
            12.01,
            11.8,
            11.58,
            11.3,
            11.07,
            10.87,
            10.65,
            10.44,
            10.29,
            10.08,
            9.81,
            9.6,
            9.4,
            9.14,
            8.94,
            8.75,
            8.55,
            8.29,
            8.16,
            7.96,
            7.78,
            7.54,
            7.35,
            7.12,
            6.95,
            6.78,
            6.57,
            6.35,
            6.2,
            5.94,
            5.76,
            5.56,
            5.38,
            5.15,
            4.89,
            4.73,
            4.58,
            4.39,
            4.25,
            4.13,
            3.97,
            3.82,
            3.72,
            3.56,
            3.4,
            3.26,
            3.13,
            2.99,
            2.85,
            2.72,
            2.53,
            2.44,
            2.29,
            2.13,
            1.98,
            1.83,
            1.68,
            1.57,
            1.41,
            1.25,
            1.1,
            0.94,
            0.84,
            0.68,
            0.53,
            0.37,
            0.22,
            0.06,
            -0.09,
            -0.25,
            -0.35,
            -0.51,
            -0.67,
            -0.82,
            -0.98,
            -1.14,
            -1.36,
            -1.5,
            -1.67,
            -1.82,
            -1.98,
            -2.08,
            -2.23,
            -2.38,
            -2.54,
            -2.74,
            -2.9,
            -3.06,
            -3.22,
            -3.39,
            -3.55,
            -3.72,
            -3.89,
            -4.12,
            -4.28,
            -4.55,
            -4.72,
            -4.95,
            -5.18,
            -5.42,
            -5.66,
            -5.84,
            -6.08,
            -6.27,
            -6.58,
            -6.89,
            -7.14,
            -7.4,
            -7.66,
            -8.05,
            -8.31,
            -8.72,
            -9.05,
            -9.47,
            -9.81,
            -10.37,
            -10.73,
            -11.24,
            -11.66,
            -12.17,
            -12.68,
            -13.13,
            -13.66,
            -14.18,
            -14.72,
            -15.27,
            -15.81,
            -16.37,
            -16.87,
            -17.41,
            -18.04,
            -18.34,
            -18.64,
            -18.55,
            -18.41,
            -18.14,
            -17.8,
            -17.44,
            -17.08,
            -16.89,
            -16.71,
            -16.35,
            -16.14,
            -15.91,
            -15.69,
            -15.47,
            -15.24,
            -15.01,
            -14.78,
            -14.55,
            -14.34,
            -14.1,
            -13.87,
            -13.65,
            -13.42,
            -13.2,
            -12.97,
            -12.74,
            -12.52,
            -12.08,
            -11.85,
            -11.63,
            -11.18,
            -10.96,
            -10.74,
            -10.51,
            -10.29,
            -10.08,
            -9.86,
            -9.63,
            -9.42,
            -9.19,
            -8.98,
            -8.75,
            -8.52,
            -8.03,
            -7.81,
            -7.59,
            -7.36,
            -7.16,
            -6.95,
            -6.74,
            -6.53,
            -6.33,
            -6.13,
            -5.94,
            -5.74,
            -5.54,
            -5.34,
            -5.15,
            -4.94,
            -4.75,
            -4.56,
            -4.37,
            -4.18,
            -3.99,
            -3.8,
            -3.62,
            -3.43,
            -3.25,
            -3.08,
            -2.9,
            -2.73,
            -2.56,
            -2.39,
            -2.29,
            -2.09,
            -1.93,
            -1.79,
            -1.63,
            -1.49,
            -1.24,
            -1.08,
            -0.89,
            -0.72,
            -0.55,
            -0.42,
            -0.28,
            -0.11,
            0.04,
            0.21,
            0.36,
            0.5,
            0.65,
            0.82,
            0.99,
            1.16,
            1.34,
            1.53,
            1.74,
            1.95,
            2.16,
            2.38,
            2.61,
            2.83,
            3.05,
            3.27,
            3.5,
            3.73,
            3.96,
            4.2,
            4.43,
            4.67,
            4.91,
            5.15,
            5.39,
            5.64,
            5.89,
            6.15,
            6.4,
            6.66,
            6.91,
            7.17,
            7.43,
            7.97,
            8.5,
            9.04,
            9.58,
            10.13,
            10.69,
            11.24,
            11.81,
            12.37,
            12.94,
            13.52,
            14.11,
            14.7,
            15.31,
            15.95,
            16.58,
            17.23,
            17.89,
            18.58,
            19.27,
            19.99,
            20.68,
            21.24,
            21.87,
            22.4,
            23.0,
            23.58,
            24.13,
            24.69,
            25.23,
            25.78,
            26.32,
            26.87,
            27.42,
            27.97,
            28.52,
            29.08,
            29.65,
            30.2,
            30.75,
            31.32,
            31.89,
            32.43,
            33.01,
            33.58,
            34.14,
            34.72,
            35.29,
            35.86,
            36.41,
            36.92,
            37.48,
            38.02,
            38.49,
            39.02,
            39.2,
            39.27,
            39.03,
            38.86,
            38.6,
            38.27,
            38.03,
            37.8,
            37.56,
            37.33,
            37.1,
            36.87,
            36.63,
            36.41,
            36.19,
            35.83,
            35.6,
            35.35,
            35.13,
            34.9,
            34.67,
            34.45,
            34.1,
            33.87,
            33.52,
            33.3,
            32.94,
            32.72,
            32.38,
            32.03,
            31.82,
            31.46,
            31.23,
            30.89,
            30.55,
            30.2,
            29.87,
            29.57,
            29.27,
            28.81,
            28.51,
            28.15,
            27.79,
            27.42,
            27.13,
            26.75,
            26.32,
            25.82,
            25.47,
            25.05,
            24.62,
            24.26,
            23.67,
            23.08,
            22.53,
            21.91,
            21.34,
            20.78,
            20.2,
            19.61,
            19.0,
            18.4,
            17.8,
            17.18,
            16.57,
            15.95,
            15.34,
            14.71,
            14.1,
            13.48,
            12.97,
            12.39,
            11.78,
            11.17,
            10.57,
            9.97,
            9.38,
            8.8,
            8.21,
            7.62,
            7.07,
            6.52,
            5.98,
            5.57,
            5.17,
            4.78,
            4.39,
            4.01,
            3.63,
            3.25,
            2.88,
            2.39,
            2.03,
            1.66,
            1.31,
            0.95,
            0.58,
            0.23,
            -0.13,
            -0.49,
            -0.84,
            -1.08,
            -1.29,
            -1.5,
            -1.72,
            -2.08,
            -2.43,
            -2.78,
            -3.14,
            -3.38,
            -3.73,
            -4.09,
            -4.33,
            -4.69,
            -5.06,
            -5.42,
            -5.79,
            -6.16,
            -6.52,
            -6.89,
            -7.27,
            -7.76,
            -8.14,
            -8.52,
            -8.9,
            -9.42,
            -9.81,
            -10.33,
            -10.86,
            -11.39,
            -11.93,
            -12.48,
            -13.05,
            -13.6,
            -14.16,
            -14.74,
            -15.33,
            -15.91,
            -16.52,
            -17.12,
            -17.75,
            -18.37,
            -18.87,
            -19.52,
            -20.18,
            -20.7,
            -21.2,
            -21.74,
            -22.32,
            -22.88,
            -23.09,
            -23.68,
            -24.27,
            -24.79,
            -25.32,
            -25.88,
            -26.44,
            -26.98,
            -27.55,
            -28.11,
            -28.67,
            -29.23,
            -29.82,
            -30.4,
            -30.98,
            -31.57,
            -32.16,
            -32.75,
            -33.36,
            -33.93,
            -34.5,
            -35.08,
            -35.68,
            -36.27,
            -36.85,
            -37.4,
            -37.72,
            -37.82,
            -38.33,
            -38.83,
            -39.28,
            -39.8,
            -39.81,
            -39.59,
            -39.28,
            -39.06,
            -38.83,
            -38.62,
            -38.28,
            -38.05,
            -37.71,
            -37.37,
            -37.02,
            -36.67,
            -36.45,
            -36.11,
            -35.84,
            -35.5,
            -35.27,
            -34.93,
            -34.57,
            -34.34,
            -34.0,
            -33.74,
            -33.39,
            -33.16,
            -32.79,
            -32.43,
            -32.19,
            -31.8,
            -31.44,
            -31.04,
            -30.65,
            -30.25,
            -29.86,
            -29.49,
            -29.1,
            -28.75,
            -28.36,
            -27.99,
            -27.62,
            -27.37,
            -26.99,
            -26.59,
            -26.21,
            -25.83,
            -25.44,
            -25.06,
            -24.66,
            -24.26,
            -23.86,
            -23.45,
            -23.05,
            -22.51,
            -21.96,
            -21.4,
            -20.84,
            -20.25,
            -19.61,
            -19.1,
            -18.59,
            -17.97,
            -17.36,
            -16.74,
            -16.12,
            -15.52,
            -14.91,
            -14.31,
            -13.71,
            -13.2,
            -12.64,
            -12.12,
            -11.61,
            -11.05,
            -10.49,
            -9.92,
            -9.36,
            -8.83,
            -8.22,
            -7.62,
            -7.1,
            -6.64,
            -6.25,
            -5.85,
            -5.45,
            -4.97,
            -4.61,
            -4.11,
            -3.74,
            -3.36,
            -2.92,
            -2.45,
            -2.09,
            -1.72,
            -1.22,
            -0.72,
            -0.34,
            0.07,
            0.47,
            0.87,
            1.28,
            1.69,
            2.09,
            2.5,
            3.05,
            3.46,
            3.87,
            4.28,
            4.7,
            5.12,
            5.69,
            6.12,
            6.55,
            7.13,
            7.73,
            8.31,
            8.91,
            9.51,
            10.12,
            10.73,
            11.35,
            11.98,
            12.6,
            13.23,
            13.87,
            14.5,
            15.15,
            15.78,
            16.42,
            16.92,
            17.56,
            18.21,
            18.87,
            19.52,
            20.02,
            20.52,
            21.19,
            21.85,
            22.36,
            22.91,
            23.56,
            24.08,
            24.6,
            25.11,
            25.63,
            26.18,
            26.68,
            27.18,
            27.7,
            28.23,
            28.76,
            29.29,
            29.82,
            30.35,
            30.89,
            31.41,
            31.96,
            32.5,
            33.04,
            33.57,
            34.12,
            34.68,
            35.22,
            35.75,
            36.28,
            36.84,
            37.36,
            37.9,
            38.47,
            39.01,
            39.2,
            39.77,
            39.79,
            39.63,
            39.44,
            39.23,
            39.04,
            38.83,
            38.64,
            38.32,
            38.02,
            37.81,
            37.52,
            37.29,
            36.99,
            36.79,
            36.5,
            36.3,
            35.99,
            35.79,
            35.49,
            35.28,
            34.98,
            34.67,
            34.39,
            34.08,
            33.8,
            33.48,
            33.2,
            32.9,
            32.6,
            32.32,
            31.93,
            31.64,
            31.35,
            31.03,
            30.7,
            30.36,
            30.06,
            29.76,
            29.41,
            29.09,
            28.77,
            28.48,
            28.11,
            27.72,
            27.43,
            27.12,
            26.68,
            26.29,
            25.82,
            25.42,
            24.88,
            24.36,
            23.94,
            23.42,
            22.88,
            22.26,
            21.67,
            21.12,
            20.56,
            19.98,
            19.38,
            18.8,
            18.2,
            17.61,
            17.0,
            16.39,
            15.78,
            15.18,
            14.68,
            14.08,
            13.47,
            12.86,
            12.27,
            11.68,
            11.07,
            10.48,
            9.89,
            9.31,
            8.73,
            8.15,
            7.58,
            7.01,
            6.46,
            5.9,
            5.5,
            5.0,
            4.6,
            4.08,
            3.56,
            3.04,
            2.53,
            2.12,
            1.61,
            1.2,
            0.69,
            0.17,
            -0.24,
            -0.82,
            -1.22,
            -1.61,
            -2.02,
            -2.43,
            -2.94,
            -3.35,
            -3.76,
            -4.28,
            -4.81,
            -5.33,
            -5.75,
            -6.28,
            -6.82,
            -7.35,
            -7.9,
            -8.44,
            -8.99,
            -9.53,
            -10.09,
            -10.64,
            -11.19,
            -11.77,
            -12.32,
            -12.9,
            -13.47,
            -14.05,
            -14.63,
            -15.22,
            -15.8,
            -16.39,
            -16.99,
            -17.58,
            -18.19,
            -18.79,
            -19.4,
            -20.01,
            -20.51,
            -21.12,
            -21.72,
            -22.24,
            -22.74,
            -23.25,
            -23.75,
            -24.35,
            -24.91,
            -25.52,
            -26.04,
            -26.55,
            -27.08,
            -27.6,
            -28.11,
            -28.66,
            -29.19,
            -29.7,
            -30.26,
            -30.78,
            -31.33,
            -31.88,
            -32.42,
            -32.97,
            -33.52,
            -34.07,
            -34.64,
            -35.2,
            -35.76,
            -36.31,
            -36.89,
            -37.46,
            -38.02,
            -38.58,
            -38.7,
            -38.84,
            -39.35,
            -39.86,
            -40.13,
            -40.05,
            -39.84,
            -39.59,
            -39.35,
            -39.03,
            -38.86,
            -38.59,
            -38.33,
            -38.08,
            -37.82,
            -37.51,
            -37.25,
            -37.0,
            -36.74,
            -36.49,
            -36.21,
            -35.96,
            -35.7,
            -35.44,
            -35.1,
            -34.77,
            -34.51,
            -34.26,
            -33.98,
            -33.72,
            -33.46,
            -33.11,
            -32.77,
            -32.5,
            -32.06,
            -31.7,
            -31.24,
            -30.9,
            -30.56,
            -30.21,
            -29.84,
            -29.51,
            -29.16,
            -28.82,
            -28.55,
            -28.17,
            -27.83,
            -27.49,
            -27.15,
            -26.81,
            -26.46,
            -26.11,
            -25.77,
            -25.42,
            -25.06,
            -24.62,
            -24.17,
            -23.78,
            -23.3,
            -22.89,
            -22.49,
            -22.1,
            -21.6,
            -21.09,
            -20.57,
