{
    "Name": "Galeota et al. 1996, CA2",
    "Type": "Rectangular",
    "fpc": 80.0,
    "fyt": 430.0,
    "fsut": 0.0,
    "fyl": 430.0,
    "fsul": 0.0,
    "Width": 250.0,
    "Depth": 250.0,
    "L_Inflection": 1140.0,
    "L_Measured": 1140.0,
    "TestConfiguration": "Double Ended",
    "AxLoad": 1500.0,
    "P_Delta": "Shear provided",
    "dlb": 10.0,
    "dlb_c": 10.0,
    "nlb": 12.0,
    "cc_per": 30.0,
    "nib_per": 2.0,
    "cc_par": 30.0,
    "nib_par": 2.0,
    "SubType": "RI: Rectangular and interlocking ties",
    "nsl": 4.0,
    "dtb_rcs": 8.0,
    "s_rcs": 50.0,
    "FailureType": "Flexure",
    "data": {
        "disp": [
            0.04,
            0.09,
            0.19,
            0.24,
            0.32,
            0.41,
            0.52,
            0.64,
            0.7,
            0.82,
            0.9,
            0.97,
            1.07,
            1.16,
            1.25,
            1.32,
            1.41,
            1.49,
            1.55,
            1.66,
            1.76,
            1.83,
            1.9,
            1.99,
            2.11,
            2.21,
            2.32,
            2.37,
            2.49,
            2.57,
            2.67,
            2.73,
            2.82,
            2.93,
            3.04,
            3.1,
            3.18,
            3.28,
            3.38,
            3.45,
            3.55,
            3.64,
            3.74,
            3.83,
            3.96,
            4.08,
            4.2,
            4.35,
            4.48,
            4.58,
            4.69,
            4.84,
            4.97,
            5.11,
            5.23,
            5.38,
            5.56,
            5.71,
            5.87,
            6.04,
            6.12,
            6.3,
            6.5,
            6.69,
            6.88,
            7.05,
            7.27,
            7.69,
            7.92,
            8.13,
            8.36,
            8.58,
            8.86,
            9.07,
            9.38,
            9.62,
            9.9,
            10.2,
            10.5,
            10.84,
            11.2,
            11.51,
            11.8,
            12.13,
            12.45,
            12.97,
            13.25,
            13.35,
            13.39,
            13.31,
            13.19,
            13.09,
            12.88,
            12.71,
            12.58,
            12.38,
            12.17,
            12.09,
            11.83,
            11.74,
            11.58,
            11.38,
            11.16,
            11.0,
            10.9,
            10.65,
            10.52,
            10.38,
            10.21,
            10.02,
            9.82,
            9.65,
            9.52,
            9.4,
            9.2,
            9.0,
            8.8,
            8.63,
            8.44,
            8.27,
            8.1,
            7.89,
            7.63,
            7.46,
            7.25,
            7.07,
            6.96,
            6.76,
            6.62,
            6.42,
            6.26,
            6.16,
            5.99,
            5.81,
            5.65,
            5.53,
            5.38,
            5.27,
            5.11,
            4.96,
            4.78,
            4.69,
            4.6,
            4.43,
            4.31,
            4.16,
            4.05,
            3.94,
            3.82,
            3.68,
            3.58,
            3.44,
            3.33,
            3.25,
            3.11,
            2.99,
            2.84,
            2.71,
            2.61,
            2.53,
            2.41,
            2.28,
            2.14,
            2.07,
            1.95,
            1.85,
            1.73,
            1.63,
            1.57,
            1.46,
            1.37,
            1.25,
            1.14,
            1.0,
            0.9,
            0.75,
            0.59,
            0.46,
            0.3,
            0.19,
            0.06,
            -0.05,
            -0.18,
            -0.3,
            -0.4,
            -0.53,
            -0.68,
            -0.79,
            -0.89,
            -1.03,
            -1.14,
            -1.27,
            -1.39,
            -1.52,
            -1.65,
            -1.78,
            -1.91,
            -2.03,
            -2.16,
            -2.29,
            -2.5,
            -2.69,
            -2.83,
            -2.97,
            -3.08,
            -3.22,
            -3.36,
            -3.51,
            -3.64,
            -3.78,
            -3.91,
            -4.05,
            -4.2,
            -4.33,
            -4.54,
            -4.68,
            -4.84,
            -5.04,
            -5.22,
            -5.36,
            -5.55,
            -5.72,
            -5.86,
            -6.37,
            -6.53,
            -6.75,
            -6.94,
            -7.18,
            -7.34,
            -7.6,
            -7.84,
            -8.07,
            -8.34,
            -8.58,
            -8.87,
            -9.06,
            -9.36,
            -9.63,
            -9.93,
            -10.24,
            -10.53,
            -10.9,
            -11.2,
            -11.58,
            -11.88,
            -12.25,
            -12.71,
            -13.08,
            -13.54,
            -14.01,
            -14.45,
            -14.98,
            -15.52,
            -16.07,
            -16.65,
            -17.86,
            -18.08,
            -18.22,
            -18.35,
            -18.37,
            -18.22,
            -18.03,
            -17.83,
            -17.6,
            -17.43,
            -17.27,
            -17.02,
            -16.89,
            -16.66,
            -16.46,
            -16.29,
            -16.09,
            -15.87,
            -15.65,
            -15.45,
            -15.22,
            -15.01,
            -14.78,
            -14.6,
            -14.4,
            -14.16,
            -13.95,
            -13.72,
            -13.51,
            -13.3,
            -13.08,
            -12.87,
            -12.65,
            -12.46,
            -12.27,
            -12.07,
            -11.83,
            -11.62,
            -11.4,
            -11.2,
            -10.95,
            -10.74,
            -10.51,
            -10.39,
            -10.14,
            -9.94,
            -9.72,
            -9.54,
            -9.37,
            -9.17,
            -8.93,
            -8.73,
            -8.52,
            -8.24,
            -8.05,
            -7.83,
            -7.64,
            -7.45,
            -7.21,
            -7.03,
            -6.81,
            -6.58,
            -6.38,
            -6.17,
            -5.98,
            -5.77,
            -5.56,
            -5.32,
            -5.11,
            -4.93,
            -4.69,
            -4.55,
            -4.43,
            -4.28,
            -4.13,
            -3.96,
            -3.82,
            -3.73,
            -3.56,
            -3.45,
            -3.3,
            -3.15,
            -3.02,
            -2.85,
            -2.68,
            -2.58,
            -2.47,
            -2.37,
            -2.23,
            -2.14,
            -1.99,
            -1.88,
            -1.73,
            -1.59,
            -1.47,
            -1.34,
            -1.25,
            -1.1,
            -0.99,
            -0.83,
            -0.7,
            -0.56,
            -0.44,
            -0.31,
            -0.2,
            -0.04,
            0.08,
            0.21,
            0.33,
            0.48,
            0.59,
            0.72,
            0.87,
            1.05,
            1.17,
            1.33,
            1.49,
            1.61,
            1.78,
            1.97,
            2.09,
            2.23,
            2.37,
            2.53,
            2.69,
            2.83,
            3.02,
            3.16,
            3.34,
            3.49,
            3.62,
            3.81,
            4.01,
            4.14,
            4.29,
            4.43,
            4.62,
            4.83,
            4.99,
            5.19,
            5.39,
            5.59,
            5.76,
            5.98,
            6.16,
            6.37,
            6.56,
            6.77,
            6.95,
            7.17,
            7.41,
            7.61,
            7.88,
            8.13,
            8.38,
            8.66,
            8.95,
            9.22,
            9.53,
            9.86,
            10.16,
            10.53,
            10.91,
            11.28,
            11.66,
            12.1,
            12.62,
            13.13,
            13.58,
            14.1,
            14.71,
            15.21,
            15.72,
            16.27,
            16.8,
            17.32,
            17.87,
            18.42,
            18.99,
            19.51,
            20.02,
            20.54,
            21.07,
            21.62,
            22.13,
            22.64,
            23.19,
            23.74,
            24.28,
            24.83,
            25.36,
            25.92,
            26.49,
            27.03,
            27.59,
            28.14,
            28.64,
            29.2,
            29.73,
            30.05,
            30.1,
            29.97,
            29.79,
            29.58,
            29.52,
            29.43,
            29.33,
            29.14,
            28.94,
            28.79,
            28.55,
            28.33,
            28.12,
            27.89,
            27.64,
            27.39,
            27.22,
            26.96,
            26.77,
            26.5,
            26.2,
            25.98,
            25.68,
            25.41,
            25.16,
            24.88,
            24.65,
            24.35,
            24.1,
            23.83,
            23.64,
            23.4,
            23.12,
            22.85,
            22.59,
            22.33,
            22.06,
            21.8,
            21.51,
            21.28,
            21.0,
            20.75,
            20.44,
            20.23,
            19.96,
            19.7,
            19.43,
            19.15,
            18.84,
            18.56,
            18.31,
            18.08,
            17.7,
            17.21,
            16.71,
            16.43,
            16.09,
            15.79,
            15.44,
            15.04,
            14.76,
            14.4,
            14.04,
            13.66,
            13.26,
            12.89,
            12.48,
            11.92,
            11.48,
            10.96,
            10.57,
            10.06,
            9.63,
            9.23,
            8.78,
            8.32,
            7.87,
            7.32,
            6.8,
            6.26,
            5.89,
            5.51,
            5.17,
            4.91,
            4.5,
            4.17,
            3.79,
            3.49,
            3.13,
            2.92,
            2.62,
            2.39,
            2.11,
            1.83,
            1.6,
            1.32,
            1.15,
            0.88,
            0.61,
            0.34,
            0.12,
            -0.14,
            -0.32,
            -0.58,
            -0.79,
            -1.08,
            -1.24,
            -1.49,
            -1.7,
            -1.93,
            -2.19,
            -2.43,
            -2.7,
            -2.93,
            -3.15,
            -3.38,
            -3.64,
            -3.88,
            -4.06,
            -4.33,
            -4.57,
            -4.8,
            -5.04,
            -5.34,
            -5.59,
            -5.83,
            -6.1,
            -6.35,
            -6.63,
            -6.93,
            -7.2,
            -7.48,
            -7.81,
            -8.12,
            -8.48,
            -8.78,
            -9.12,
            -9.45,
            -9.83,
            -10.19,
            -10.57,
            -11.02,
            -11.47,
            -11.93,
            -12.37,
            -12.93,
            -13.36,
            -13.87,
            -14.49,
            -14.94,
            -15.34,
            -15.92,
            -16.42,
            -16.95,
            -17.49,
            -18.0,
            -18.54,
            -19.04,
            -19.58,
            -20.1,
            -20.64,
            -21.05,
            -21.55,
            -22.11,
            -22.66,
            -23.18,
            -23.6,
            -24.11,
            -24.64,
            -25.21,
            -25.79,
            -26.33,
            -26.89,
            -27.42,
            -27.68,
            -28.24,
            -28.77,
            -29.31,
            -30.03,
            -30.53,
            -31.09,
            -31.64,
            -32.22,
            -32.78,
            -33.3,
            -33.85,
            -34.1,
            -34.61,
            -35.17,
            -35.88,
            -36.4,
            -36.94,
            -37.48,
            -37.68,
            -38.26,
            -38.58,
            -38.62,
            -38.49,
            -38.25,
            -37.96,
            -37.68,
            -37.42,
            -37.13,
            -36.88,
            -36.6,
            -36.34,
            -36.06,
            -35.81,
            -35.49,
            -35.23,
            -34.95,
            -34.66,
            -34.39,
            -34.09,
            -33.83,
            -33.54,
            -33.26,
            -32.99,
            -32.68,
            -32.39,
            -31.95,
            -31.68,
            -31.42,
            -31.13,
            -30.84,
            -30.54,
            -30.08,
            -29.64,
            -29.21,
            -28.75,
            -28.27,
            -27.81,
            -27.34,
            -26.89,
            -26.44,
            -25.98,
            -25.5,
            -25.03,
            -24.54,
            -24.09,
            -23.67,
            -23.19,
            -22.77,
            -22.3,
            -21.84,
            -21.36,
            -20.91,
            -20.47,
            -20.01,
            -19.53,
            -19.09,
            -18.57,
            -18.18,
            -17.68,
            -17.24,
            -16.79,
            -16.35,
            -15.74,
            -15.27,
            -14.71,
            -14.2,
            -13.69,
            -13.37,
            -12.83,
            -12.32,
            -11.81,
            -11.18,
            -10.52,
            -9.88,
            -9.37,
            -8.74,
            -8.11,
            -7.51,
            -7.08,
            -6.47,
            -6.02,
            -5.59,
            -5.1,
            -4.67,
            -4.19,
            -3.69,
            -3.36,
            -2.91,
            -2.42,
            -1.93,
            -1.62,
            -1.29,
            -0.8,
            -0.32,
            0.02,
            0.35,
            0.82,
            1.33,
            1.64,
            2.13,
            2.46,
            2.95,
            3.27,
            3.75,
            4.1,
            4.59,
            5.07,
            5.59,
            6.08,
            6.59,
            7.1,
            7.6,
            8.1,
            8.65,
            9.31,
            9.85,
            10.38,
            10.93,
            11.44,
            11.97,
            12.51,
            13.08,
            13.61,
            14.14,
            14.69,
            15.27,
            15.82,
            16.39,
            16.96,
            17.5,
            18.08,
            18.65,
            19.22,
            19.78,
            20.35,
            20.95,
            21.53,
            22.13,
            22.7,
            23.33,
            23.94,
            24.53,
            25.14,
            25.76,
            26.39,
            27.01,
            27.34,
            27.39,
            27.21,
            27.09,
            26.85,
            26.66,
            26.43,
            26.21,
            25.99,
            25.79,
            25.58,
            25.32,
            25.1,
            24.86,
            24.66,
            24.44,
            24.22,
            23.98,
            23.77,
            23.42,
            23.07,
            22.86,
            22.66,
            22.31,
            21.97,
            21.63,
            21.32,
            20.95,
            20.71,
            20.55,
            20.29,
            19.97,
            19.75,
            19.38,
            19.04,
            18.72,
            18.35,
            18.06,
            17.7,
            17.38,
            17.16,
            16.84,
            16.48,
            16.16,
            15.84,
            15.5,
            15.18,
            14.89,
            14.57,
            14.26,
            13.93,
            13.66,
            13.37,
            13.1,
            12.73,
            12.36,
            11.98,
            11.65,
            11.28,
            10.87,
            10.39,
            9.96,
            9.57,
            9.09,
            8.74,
            8.25,
            7.9,
            7.49,
            7.07,
            6.64,
            6.21,
            5.65,
            5.24,
            4.82,
            4.39,
            3.97,
            3.7,
            3.38,
            3.07,
            2.65,
            2.35,
            2.05,
            1.73,
            1.46,
            1.01,
            0.59,
            0.28,
            -0.15,
            -0.58,
            -0.99,
            -1.42,
            -1.72,
            -2.17,
            -2.59,
            -2.92,
            -3.23,
            -3.67,
            -3.99,
            -4.38,
            -4.72,
            -5.17,
            -5.62,
            -5.94,
            -6.39,
            -6.82,
            -7.31,
            -7.71,
            -8.21,
            -8.62,
            -9.23,
            -9.71,
            -10.27,
            -10.89,
            -11.31,
            -11.82,
            -12.42,
            -13.01,
            -13.64,
            -14.27,
            -14.89,
            -15.53,
            -16.05,
            -16.56,
            -17.19,
            -17.82,
            -18.34,
            -18.86,
            -19.38,
            -19.89,
            -20.4,
            -20.95,
            -21.48,
            -22.02,
            -22.55,
            -23.1,
            -23.66,
            -24.21,
            -24.71,
            -25.29,
            -25.81,
            -26.38,
            -26.96,
            -27.52,
            -28.08,
            -28.62,
            -29.26,
            -29.84,
            -30.41,
            -30.99,
            -31.58,
            -32.18,
            -32.76,
            -33.35,
            -33.94,
            -34.54,
            -35.09,
            -35.71,
            -36.28,
            -36.86,
            -37.37,
            -37.48,
            -37.5,
            -37.36,
            -37.12,
            -36.86,
            -36.6,
            -36.32,
            -36.07,
            -35.8,
            -35.57,
            -35.29,
            -35.03,
            -34.77,
            -34.48,
            -34.2,
            -33.95,
            -33.69,
            -33.4,
            -33.14,
            -32.85,
            -32.59,
            -32.32,
            -32.06,
            -31.79,
            -31.52,
            -31.23,
            -30.96,
            -30.7,
            -30.41,
            -30.15,
            -29.87,
            -29.62,
            -29.33,
            -28.97,
            -28.58,
            -28.2,
            -27.79,
            -27.4,
            -26.99,
            -26.62,
            -26.21,
            -25.72,
            -25.33,
            -24.93,
            -24.42,
            -24.04,
            -23.51,
            -23.0,
            -22.54,
            -22.15,
            -21.75,
            -21.37,
            -20.88,
            -20.48,
            -20.1,
            -19.72,
            -19.33,
            -18.83,
            -18.46,
            -17.96,
            -17.63,
            -17.15,
            -16.77,
            -16.29,
            -15.81,
            -15.22,
